##TITLE=No Description
##DATA TYPE=INFRARED SPECTRUM
##XUNITS=1/CM
##YUNITS=Abs
399.264912  	0.530030 
401.193728  	0.562321 
403.122544  	0.554407 
405.051360  	0.530640 
406.980176  	0.529631 
408.908992  	0.515228 
410.837808  	0.529365 
412.766624  	0.541180 
414.695440  	0.540717 
416.624256  	0.541778 
418.553072  	0.551380 
420.481888  	0.531575 
422.410704  	0.513528 
424.339520  	0.499701 
426.268336  	0.505812 
428.197152  	0.514471 
430.125968  	0.520870 
432.054784  	0.518970 
433.983600  	0.510212 
435.912416  	0.506252 
437.841232  	0.505842 
439.770048  	0.496264 
441.698864  	0.494968 
443.627680  	0.487726 
445.556496  	0.488112 
447.485312  	0.496884 
449.414128  	0.503441 
451.342944  	0.503062 
453.271760  	0.495778 
455.200576  	0.493810 
457.129392  	0.498134 
459.058208  	0.495361 
460.987024  	0.497978 
462.915840  	0.496277 
464.844656  	0.500234 
466.773472  	0.498326 
468.702288  	0.498477 
470.631104  	0.498120 
472.559920  	0.500452 
474.488736  	0.501239 
476.417552  	0.504775 
478.346368  	0.498674 
480.275184  	0.495987 
482.204000  	0.492135 
484.132816  	0.494634 
486.061632  	0.498572 
487.990448  	0.496452 
489.919264  	0.494047 
491.848080  	0.493241 
493.776896  	0.489331 
495.705712  	0.490110 
497.634528  	0.489466 
499.563344  	0.488784 
501.492160  	0.484701 
503.420976  	0.483661 
505.349792  	0.481621 
507.278608  	0.484377 
509.207424  	0.485735 
511.136240  	0.487318 
513.065056  	0.486642 
514.993872  	0.490349 
516.922688  	0.493190 
518.851504  	0.497600 
520.780320  	0.497976 
522.709136  	0.498952 
524.637952  	0.496149 
526.566768  	0.494441 
528.495584  	0.491127 
530.424400  	0.488394 
532.353216  	0.483338 
534.282032  	0.476113 
536.210848  	0.467316 
538.139664  	0.462762 
540.068480  	0.457799 
541.997296  	0.451416 
543.926112  	0.446359 
545.854928  	0.444683 
547.783744  	0.440515 
549.712560  	0.437380 
551.641376  	0.434040 
553.570192  	0.431807 
555.499008  	0.427456 
557.427824  	0.425010 
559.356640  	0.421269 
561.285456  	0.417791 
563.214272  	0.414364 
565.143088  	0.410604 
567.071904  	0.405806 
569.000720  	0.401647 
570.929536  	0.397869 
572.858352  	0.396710 
574.787168  	0.394195 
576.715984  	0.391053 
578.644800  	0.386924 
580.573616  	0.382169 
582.502432  	0.377005 
584.431248  	0.371740 
586.360064  	0.366746 
588.288880  	0.363814 
590.217696  	0.361874 
592.146512  	0.360325 
594.075328  	0.358081 
596.004144  	0.355770 
597.932960  	0.353480 
599.861776  	0.351855 
601.790592  	0.350411 
603.719408  	0.350785 
605.648224  	0.350129 
607.577040  	0.348509 
609.505856  	0.346696 
611.434672  	0.346138 
613.363488  	0.344432 
615.292304  	0.342805 
617.221120  	0.341167 
619.149936  	0.340721 
621.078752  	0.339367 
623.007568  	0.338506 
624.936384  	0.338017 
626.865200  	0.337961 
628.794016  	0.337965 
630.722832  	0.337737 
632.651648  	0.337786 
634.580464  	0.337866 
636.509280  	0.338879 
638.438096  	0.339436 
640.366912  	0.338748 
642.295728  	0.337423 
644.224544  	0.335094 
646.153360  	0.332579 
648.082176  	0.328594 
650.010992  	0.324926 
651.939808  	0.320190 
653.868624  	0.316696 
655.797440  	0.312954 
657.726256  	0.309416 
659.655072  	0.304836 
661.583888  	0.300825 
663.512704  	0.296540 
665.441520  	0.291607 
667.370336  	0.287568 
669.299152  	0.283798 
671.227968  	0.278856 
673.156784  	0.274912 
675.085600  	0.272105 
677.014416  	0.269820 
678.943232  	0.267986 
680.872048  	0.266476 
682.800864  	0.264508 
684.729680  	0.263044 
686.658496  	0.261490 
688.587312  	0.261015 
690.516128  	0.259178 
692.444944  	0.257333 
694.373760  	0.256370 
696.302576  	0.255545 
698.231392  	0.253607 
700.160208  	0.251552 
702.089024  	0.249094 
704.017840  	0.246545 
705.946656  	0.243594 
707.875472  	0.241482 
709.804288  	0.239555 
711.733104  	0.238174 
713.661920  	0.236489 
715.590736  	0.235504 
717.519552  	0.235768 
719.448368  	0.236831 
721.377184  	0.238592 
723.306000  	0.240308 
725.234816  	0.241193 
727.163632  	0.240182 
729.092448  	0.237736 
731.021264  	0.234088 
732.950080  	0.230152 
734.878896  	0.226757 
736.807712  	0.223353 
738.736528  	0.220794 
740.665344  	0.218507 
742.594160  	0.217428 
744.522976  	0.216240 
746.451792  	0.215399 
748.380608  	0.214164 
750.309424  	0.213321 
752.238240  	0.212334 
754.167056  	0.212149 
756.095872  	0.211964 
758.024688  	0.211119 
759.953504  	0.211258 
761.882320  	0.212894 
763.811136  	0.214360 
765.739952  	0.213029 
767.668768  	0.210221 
769.597584  	0.207777 
771.526400  	0.207257 
773.455216  	0.209758 
775.384032  	0.215040 
777.312848  	0.222711 
779.241664  	0.227987 
781.170480  	0.227637 
783.099296  	0.222056 
785.028112  	0.215371 
786.956928  	0.208887 
788.885744  	0.203532 
790.814560  	0.199565 
792.743376  	0.197290 
794.672192  	0.196837 
796.601008  	0.196169 
798.529824  	0.192928 
800.458640  	0.188154 
802.387456  	0.184441 
804.316272  	0.182800 
806.245088  	0.182385 
808.173904  	0.182392 
810.102720  	0.182897 
812.031536  	0.183385 
813.960352  	0.184396 
815.889168  	0.185946 
817.817984  	0.187406 
819.746800  	0.188953 
821.675616  	0.190857 
823.604432  	0.192612 
825.533248  	0.193883 
827.462064  	0.194782 
829.390880  	0.194489 
831.319696  	0.194225 
833.248512  	0.193013 
835.177328  	0.191142 
837.106144  	0.187942 
839.034960  	0.184497 
840.963776  	0.180299 
842.892592  	0.175978 
844.821408  	0.171392 
846.750224  	0.167515 
848.679040  	0.164985 
850.607856  	0.162735 
852.536672  	0.161418 
854.465488  	0.160401 
856.394304  	0.159749 
858.323120  	0.158978 
860.251936  	0.157887 
862.180752  	0.156443 
864.109568  	0.154362 
866.038384  	0.152123 
867.967200  	0.150222 
869.896016  	0.148878 
871.824832  	0.147574 
873.753648  	0.147318 
875.682464  	0.148189 
877.611280  	0.150415 
879.540096  	0.153814 
881.468912  	0.158095 
883.397728  	0.162487 
885.326544  	0.165537 
887.255360  	0.167591 
889.184176  	0.168258 
891.112992  	0.167706 
893.041808  	0.165872 
894.970624  	0.162656 
896.899440  	0.158369 
898.828256  	0.153357 
900.757072  	0.148127 
902.685888  	0.143404 
904.614704  	0.141078 
906.543520  	0.141314 
908.472336  	0.143531 
910.401152  	0.147164 
912.329968  	0.151396 
914.258784  	0.155484 
916.187600  	0.159357 
918.116416  	0.162358 
920.045232  	0.164686 
921.974048  	0.166340 
923.902864  	0.167621 
925.831680  	0.168794 
927.760496  	0.170185 
929.689312  	0.171785 
931.618128  	0.173856 
933.546944  	0.175375 
935.475760  	0.176049 
937.404576  	0.175719 
939.333392  	0.174985 
941.262208  	0.174683 
943.191024  	0.175998 
945.119840  	0.180326 
947.048656  	0.187796 
948.977472  	0.198678 
950.906288  	0.212653 
952.835104  	0.229256 
954.763920  	0.247596 
956.692736  	0.265362 
958.621552  	0.281015 
960.550368  	0.291735 
962.479184  	0.297541 
964.408000  	0.296661 
966.336816  	0.289438 
968.265632  	0.276352 
970.194448  	0.260156 
972.123264  	0.241624 
974.052080  	0.222216 
975.980896  	0.203386 
977.909712  	0.186113 
979.838528  	0.171149 
981.767344  	0.158997 
983.696160  	0.150432 
985.624976  	0.145343 
987.553792  	0.144441 
989.482608  	0.147412 
991.411424  	0.153628 
993.340240  	0.162460 
995.269056  	0.172329 
997.197872  	0.182781 
999.126688  	0.193047 
1001.055504  	0.203362 
1002.984320  	0.213503 
1004.913136  	0.223662 
1006.841952  	0.233293 
1008.770768  	0.241893 
1010.699584  	0.248832 
1012.628400  	0.254028 
1014.557216  	0.256996 
1016.486032  	0.258410 
1018.414848  	0.258789 
1020.343664  	0.258762 
1022.272480  	0.258590 
1024.201296  	0.258583 
1026.130112  	0.258270 
1028.058928  	0.259083 
1029.987744  	0.261788 
1031.916560  	0.265784 
1033.845376  	0.270360 
1035.774192  	0.276156 
1037.703008  	0.283763 
1039.631824  	0.294940 
1041.560640  	0.310682 
1043.489456  	0.331536 
1045.418272  	0.355353 
1047.347088  	0.379355 
1049.275904  	0.397684 
1051.204720  	0.408590 
1053.133536  	0.410756 
1055.062352  	0.408100 
1056.991168  	0.402827 
1058.919984  	0.398257 
1060.848800  	0.394098 
1062.777616  	0.390838 
1064.706432  	0.386083 
1066.635248  	0.380344 
1068.564064  	0.372863 
1070.492880  	0.364112 
1072.421696  	0.354852 
1074.350512  	0.349254 
1076.279328  	0.348709 
1078.208144  	0.352688 
1080.136960  	0.357794 
1082.065776  	0.361119 
1083.994592  	0.358887 
1085.923408  	0.351509 
1087.852224  	0.339276 
1089.781040  	0.325165 
1091.709856  	0.309269 
1093.638672  	0.292311 
1095.567488  	0.273830 
1097.496304  	0.256065 
1099.425120  	0.238670 
1101.353936  	0.222175 
1103.282752  	0.206826 
1105.211568  	0.192763 
1107.140384  	0.179814 
1109.069200  	0.168314 
1110.998016  	0.157802 
1112.926832  	0.148011 
1114.855648  	0.139193 
1116.784464  	0.130867 
1118.713280  	0.122670 
1120.642096  	0.114655 
1122.570912  	0.107393 
1124.499728  	0.100883 
1126.428544  	0.095095 
1128.357360  	0.090184 
1130.286176  	0.085932 
1132.214992  	0.082796 
1134.143808  	0.080202 
1136.072624  	0.077892 
1138.001440  	0.076039 
1139.930256  	0.074441 
1141.859072  	0.072357 
1143.787888  	0.070155 
1145.716704  	0.068383 
1147.645520  	0.066808 
1149.574336  	0.065653 
1151.503152  	0.065202 
1153.431968  	0.065601 
1155.360784  	0.066160 
1157.289600  	0.067349 
1159.218416  	0.069156 
1161.147232  	0.071714 
1163.076048  	0.074510 
1165.004864  	0.077125 
1166.933680  	0.079542 
1168.862496  	0.082184 
1170.791312  	0.085086 
1172.720128  	0.088307 
1174.648944  	0.092254 
1176.577760  	0.096326 
1178.506576  	0.100445 
1180.435392  	0.104567 
1182.364208  	0.108837 
1184.293024  	0.113520 
1186.221840  	0.118665 
1188.150656  	0.124801 
1190.079472  	0.132178 
1192.008288  	0.140768 
1193.937104  	0.150748 
1195.865920  	0.162050 
1197.794736  	0.174107 
1199.723552  	0.186530 
1201.652368  	0.199472 
1203.581184  	0.211679 
1205.510000  	0.223030 
1207.438816  	0.232963 
1209.367632  	0.241847 
1211.296448  	0.248735 
1213.225264  	0.253861 
1215.154080  	0.256721 
1217.082896  	0.258249 
1219.011712  	0.257706 
1220.940528  	0.256397 
1222.869344  	0.253858 
1224.798160  	0.250613 
1226.726976  	0.246189 
1228.655792  	0.241314 
1230.584608  	0.235754 
1232.513424  	0.229473 
1234.442240  	0.221985 
1236.371056  	0.214234 
1238.299872  	0.205825 
1240.228688  	0.196651 
1242.157504  	0.187631 
1244.086320  	0.178869 
1246.015136  	0.169811 
1247.943952  	0.160940 
1249.872768  	0.152431 
1251.801584  	0.144337 
1253.730400  	0.136285 
1255.659216  	0.128758 
1257.588032  	0.121461 
1259.516848  	0.114570 
1261.445664  	0.108191 
1263.374480  	0.102686 
1265.303296  	0.097977 
1267.232112  	0.094294 
1269.160928  	0.091581 
1271.089744  	0.089821 
1273.018560  	0.089235 
1274.947376  	0.089614 
1276.876192  	0.090474 
1278.805008  	0.091153 
1280.733824  	0.091013 
1282.662640  	0.089468 
1284.591456  	0.087348 
1286.520272  	0.085375 
1288.449088  	0.084233 
1290.377904  	0.084623 
1292.306720  	0.085886 
1294.235536  	0.086685 
1296.164352  	0.086111 
1298.093168  	0.083881 
1300.021984  	0.080600 
1301.950800  	0.076970 
1303.879616  	0.073214 
1305.808432  	0.069043 
1307.737248  	0.064553 
1309.666064  	0.060363 
1311.594880  	0.057037 
1313.523696  	0.054650 
1315.452512  	0.052962 
1317.381328  	0.052185 
1319.310144  	0.052456 
1321.238960  	0.053168 
1323.167776  	0.054337 
1325.096592  	0.055433 
1327.025408  	0.056245 
1328.954224  	0.056252 
1330.883040  	0.055543 
1332.811856  	0.054219 
1334.740672  	0.052727 
1336.669488  	0.051637 
1338.598304  	0.051487 
1340.527120  	0.051724 
1342.455936  	0.051335 
1344.384752  	0.051290 
1346.313568  	0.051782 
1348.242384  	0.052889 
1350.171200  	0.054608 
1352.100016  	0.056722 
1354.028832  	0.059050 
1355.957648  	0.061619 
1357.886464  	0.063906 
1359.815280  	0.066145 
1361.744096  	0.069111 
1363.672912  	0.072818 
1365.601728  	0.074925 
1367.530544  	0.076767 
1369.459360  	0.078630 
1371.388176  	0.079025 
1373.316992  	0.078363 
1375.245808  	0.076594 
1377.174624  	0.073360 
1379.103440  	0.070051 
1381.032256  	0.066764 
1382.961072  	0.064109 
1384.889888  	0.061839 
1386.818704  	0.060578 
1388.747520  	0.059096 
1390.676336  	0.056438 
1392.605152  	0.053596 
1394.533968  	0.052496 
1396.462784  	0.052963 
1398.391600  	0.053144 
1400.320416  	0.054167 
1402.249232  	0.053968 
1404.178048  	0.054780 
1406.106864  	0.056324 
1408.035680  	0.057527 
1409.964496  	0.059188 
1411.893312  	0.061866 
1413.822128  	0.064148 
1415.750944  	0.066001 
1417.679760  	0.067738 
1419.608576  	0.070878 
1421.537392  	0.070678 
1423.466208  	0.069457 
1425.395024  	0.068079 
1427.323840  	0.065269 
1429.252656  	0.062649 
1431.181472  	0.060976 
1433.110288  	0.059897 
1435.039104  	0.059407 
1436.967920  	0.062651 
1438.896736  	0.064866 
1440.825552  	0.065398 
1442.754368  	0.066281 
1444.683184  	0.066407 
1446.612000  	0.066408 
1448.540816  	0.067292 
1450.469632  	0.067445 
1452.398448  	0.067315 
1454.327264  	0.066659 
1456.256080  	0.066506 
1458.184896  	0.069745 
1460.113712  	0.069238 
1462.042528  	0.067738 
1463.971344  	0.067397 
1465.900160  	0.069323 
1467.828976  	0.069886 
1469.757792  	0.070736 
1471.686608  	0.074075 
1473.615424  	0.082902 
1475.544240  	0.088867 
1477.473056  	0.095400 
1479.401872  	0.099437 
1481.330688  	0.103593 
1483.259504  	0.106429 
1485.188320  	0.107818 
1487.117136  	0.108352 
1489.045952  	0.109179 
1490.974768  	0.108283 
1492.903584  	0.104579 
1494.832400  	0.099271 
1496.761216  	0.093261 
1498.690032  	0.086278 
1500.618848  	0.079864 
1502.547664  	0.073169 
1504.476480  	0.066945 
1506.405296  	0.063330 
1508.334112  	0.063231 
1510.262928  	0.059975 
1512.191744  	0.057732 
1514.120560  	0.056179 
1516.049376  	0.056302 
1517.978192  	0.058506 
1519.907008  	0.058970 
1521.835824  	0.065242 
1523.764640  	0.069416 
1525.693456  	0.072656 
1527.622272  	0.075685 
1529.551088  	0.075495 
1531.479904  	0.072801 
1533.408720  	0.070067 
1535.337536  	0.065956 
1537.266352  	0.060772 
1539.195168  	0.056540 
1541.123984  	0.055282 
1543.052800  	0.053606 
1544.981616  	0.052142 
1546.910432  	0.050420 
1548.839248  	0.048986 
1550.768064  	0.049731 
1552.696880  	0.048870 
1554.625696  	0.049883 
1556.554512  	0.048779 
1558.483328  	0.051965 
1560.412144  	0.062477 
1562.340960  	0.062492 
1564.269776  	0.064864 
1566.198592  	0.070137 
1568.127408  	0.073467 
1570.056224  	0.082425 
1571.985040  	0.088074 
1573.913856  	0.090556 
1575.842672  	0.094741 
1577.771488  	0.099555 
1579.700304  	0.098187 
1581.629120  	0.096976 
1583.557936  	0.095970 
1585.486752  	0.097063 
1587.415568  	0.099745 
1589.344384  	0.105033 
1591.273200  	0.111871 
1593.202016  	0.120450 
1595.130832  	0.129460 
1597.059648  	0.138929 
1598.988464  	0.146694 
1600.917280  	0.153858 
1602.846096  	0.158841 
1604.774912  	0.162160 
1606.703728  	0.162599 
1608.632544  	0.162106 
1610.561360  	0.159624 
1612.490176  	0.157051 
1614.418992  	0.153441 
1616.347808  	0.153647 
1618.276624  	0.156268 
1620.205440  	0.157885 
1622.134256  	0.160584 
1624.063072  	0.169282 
1625.991888  	0.175744 
1627.920704  	0.185225 
1629.849520  	0.195327 
1631.778336  	0.203379 
1633.707152  	0.209526 
1635.635968  	0.221039 
1637.564784  	0.232510 
1639.493600  	0.237615 
1641.422416  	0.241506 
1643.351232  	0.244094 
1645.280048  	0.244092 
1647.208864  	0.246890 
1649.137680  	0.246270 
1651.066496  	0.243167 
1652.995312  	0.241089 
1654.924128  	0.242162 
1656.852944  	0.237978 
1658.781760  	0.234207 
1660.710576  	0.229792 
1662.639392  	0.225232 
1664.568208  	0.219508 
1666.497024  	0.213550 
1668.425840  	0.206693 
1670.354656  	0.200253 
1672.283472  	0.194395 
1674.212288  	0.189173 
1676.141104  	0.184840 
1678.069920  	0.180607 
1679.998736  	0.177497 
1681.927552  	0.174420 
1683.856368  	0.173307 
1685.785184  	0.175072 
1687.714000  	0.172935 
1689.642816  	0.172289 
1691.571632  	0.171050 
1693.500448  	0.168760 
1695.429264  	0.167512 
1697.358080  	0.167022 
1699.286896  	0.164563 
1701.215712  	0.165444 
1703.144528  	0.162134 
1705.073344  	0.159156 
1707.002160  	0.155352 
1708.930976  	0.150350 
1710.859792  	0.143783 
1712.788608  	0.135678 
1714.717424  	0.125953 
1716.646240  	0.115349 
1718.575056  	0.103003 
1720.503872  	0.090912 
1722.432688  	0.080161 
1724.361504  	0.068988 
1726.290320  	0.059232 
1728.219136  	0.050685 
1730.147952  	0.043537 
1732.076768  	0.036755 
1734.005584  	0.033967 
1735.934400  	0.030756 
1737.863216  	0.026631 
1739.792032  	0.024322 
1741.720848  	0.022621 
1743.649664  	0.020902 
1745.578480  	0.019227 
1747.507296  	0.017542 
1749.436112  	0.017284 
1751.364928  	0.017534 
1753.293744  	0.016499 
1755.222560  	0.014554 
1757.151376  	0.014955 
1759.080192  	0.013643 
1761.009008  	0.013242 
1762.937824  	0.013720 
1764.866640  	0.012598 
1766.795456  	0.011512 
1768.724272  	0.011712 
1770.653088  	0.010072 
1772.581904  	0.011676 
1774.510720  	0.011940 
1776.439536  	0.011194 
1778.368352  	0.010065 
1780.297168  	0.010085 
1782.225984  	0.010072 
1784.154800  	0.010017 
1786.083616  	0.010033 
1788.012432  	0.009224 
1789.941248  	0.008242 
1791.870064  	0.009284 
1793.798880  	0.009924 
1795.727696  	0.009237 
1797.656512  	0.008386 
1799.585328  	0.008049 
1801.514144  	0.008697 
1803.442960  	0.008742 
1805.371776  	0.008175 
1807.300592  	0.007816 
1809.229408  	0.007403 
1811.158224  	0.007773 
1813.087040  	0.007800 
1815.015856  	0.007366 
1816.944672  	0.007312 
1818.873488  	0.007540 
1820.802304  	0.007276 
1822.731120  	0.006873 
1824.659936  	0.007059 
1826.588752  	0.007318 
1828.517568  	0.006213 
1830.446384  	0.007793 
1832.375200  	0.007555 
1834.304016  	0.007092 
1836.232832  	0.007151 
1838.161648  	0.007264 
1840.090464  	0.006687 
1842.019280  	0.005903 
1843.948096  	0.006804 
1845.876912  	0.007798 
1847.805728  	0.007075 
1849.734544  	0.007041 
1851.663360  	0.006588 
1853.592176  	0.006841 
1855.520992  	0.006704 
1857.449808  	0.006738 
1859.378624  	0.006554 
1861.307440  	0.006822 
1863.236256  	0.006313 
1865.165072  	0.005677 
1867.093888  	0.005188 
1869.022704  	0.006924 
1870.951520  	0.007240 
1872.880336  	0.006464 
1874.809152  	0.005831 
1876.737968  	0.005901 
1878.666784  	0.006035 
1880.595600  	0.006215 
1882.524416  	0.006078 
1884.453232  	0.006052 
1886.382048  	0.005459 
1888.310864  	0.005593 
1890.239680  	0.006341 
1892.168496  	0.006370 
1894.097312  	0.005711 
1896.026128  	0.005894 
1897.954944  	0.005956 
1899.883760  	0.006244 
1901.812576  	0.006206 
1903.741392  	0.006187 
1905.670208  	0.005813 
1907.599024  	0.005879 
1909.527840  	0.005902 
1911.456656  	0.006373 
1913.385472  	0.006374 
1915.314288  	0.005961 
1917.243104  	0.005653 
1919.171920  	0.006514 
1921.100736  	0.005939 
1923.029552  	0.006164 
1924.958368  	0.005249 
1926.887184  	0.004783 
1928.816000  	0.004875 
1930.744816  	0.005286 
1932.673632  	0.004970 
1934.602448  	0.004989 
1936.531264  	0.004921 
1938.460080  	0.004980 
1940.388896  	0.004134 
1942.317712  	0.005034 
1944.246528  	0.005819 
1946.175344  	0.005902 
1948.104160  	0.005110 
1950.032976  	0.004630 
1951.961792  	0.004431 
1953.890608  	0.004925 
1955.819424  	0.004277 
1957.748240  	0.004098 
1959.677056  	0.003520 
1961.605872  	0.004090 
1963.534688  	0.003874 
1965.463504  	0.004842 
1967.392320  	0.004009 
1969.321136  	0.002809 
1971.249952  	0.001938 
1973.178768  	0.002324 
1975.107584  	0.002302 
1977.036400  	0.004463 
1978.965216  	0.006300 
1980.894032  	0.006746 
1982.822848  	0.005587 
1984.751664  	0.005654 
1986.680480  	0.004815 
1988.609296  	0.005147 
1990.538112  	0.004802 
1992.466928  	0.005067 
1994.395744  	0.004511 
1996.324560  	0.004953 
1998.253376  	0.005252 
2000.182192  	0.005373 
2002.111008  	0.004298 
2004.039824  	0.004329 
2005.968640  	0.004229 
2007.897456  	0.004902 
2009.826272  	0.005888 
2011.755088  	0.006201 
2013.683904  	0.005583 
2015.612720  	0.005723 
2017.541536  	0.006878 
2019.470352  	0.008512 
2021.399168  	0.008138 
2023.327984  	0.008750 
2025.256800  	0.007958 
2027.185616  	0.006831 
2029.114432  	0.007191 
2031.043248  	0.007477 
2032.972064  	0.007172 
2034.900880  	0.007924 
2036.829696  	0.007769 
2038.758512  	0.009247 
2040.687328  	0.009595 
2042.616144  	0.009775 
2044.544960  	0.008487 
2046.473776  	0.008068 
2048.402592  	0.007181 
2050.331408  	0.007778 
2052.260224  	0.007338 
2054.189040  	0.006984 
2056.117856  	0.007273 
2058.046672  	0.007826 
2059.975488  	0.007584 
2061.904304  	0.007793 
2063.833120  	0.007645 
2065.761936  	0.008241 
2067.690752  	0.008261 
2069.619568  	0.007969 
2071.548384  	0.007545 
2073.477200  	0.008025 
2075.406016  	0.008205 
2077.334832  	0.008386 
2079.263648  	0.008286 
2081.192464  	0.008357 
2083.121280  	0.008050 
2085.050096  	0.008162 
2086.978912  	0.008409 
2088.907728  	0.008861 
2090.836544  	0.008631 
2092.765360  	0.008198 
2094.694176  	0.007714 
2096.622992  	0.008199 
2098.551808  	0.008724 
2100.480624  	0.008518 
2102.409440  	0.008097 
2104.338256  	0.008441 
2106.267072  	0.008797 
2108.195888  	0.009043 
2110.124704  	0.008751 
2112.053520  	0.008804 
2113.982336  	0.008942 
2115.911152  	0.009141 
2117.839968  	0.009059 
2119.768784  	0.008889 
2121.697600  	0.008167 
2123.626416  	0.007943 
2125.555232  	0.007663 
2127.484048  	0.007376 
2129.412864  	0.006788 
2131.341680  	0.006744 
2133.270496  	0.006662 
2135.199312  	0.007656 
2137.128128  	0.007880 
2139.056944  	0.008043 
2140.985760  	0.007829 
2142.914576  	0.007730 
2144.843392  	0.008142 
2146.772208  	0.008474 
2148.701024  	0.008551 
2150.629840  	0.009745 
2152.558656  	0.008956 
2154.487472  	0.008115 
2156.416288  	0.008236 
2158.345104  	0.011816 
2160.273920  	0.013372 
2162.202736  	0.013188 
2164.131552  	0.012254 
2166.060368  	0.012188 
2167.989184  	0.011538 
2169.918000  	0.011332 
2171.846816  	0.011276 
2173.775632  	0.010293 
2175.704448  	0.010164 
2177.633264  	0.010000 
2179.562080  	0.009069 
2181.490896  	0.009341 
2183.419712  	0.010267 
2185.348528  	0.010534 
2187.277344  	0.009835 
2189.206160  	0.010969 
2191.134976  	0.011510 
2193.063792  	0.011260 
2194.992608  	0.009983 
2196.921424  	0.010245 
2198.850240  	0.010743 
2200.779056  	0.010502 
2202.707872  	0.009428 
2204.636688  	0.009439 
2206.565504  	0.010319 
2208.494320  	0.011051 
2210.423136  	0.010306 
2212.351952  	0.009999 
2214.280768  	0.010265 
2216.209584  	0.010289 
2218.138400  	0.009829 
2220.067216  	0.009589 
2221.996032  	0.009318 
2223.924848  	0.009296 
2225.853664  	0.008930 
2227.782480  	0.009325 
2229.711296  	0.009717 
2231.640112  	0.009242 
2233.568928  	0.008938 
2235.497744  	0.009020 
2237.426560  	0.008869 
2239.355376  	0.008912 
2241.284192  	0.008964 
2243.213008  	0.009343 
2245.141824  	0.009045 
2247.070640  	0.009272 
2248.999456  	0.008992 
2250.928272  	0.008940 
2252.857088  	0.009161 
2254.785904  	0.009410 
2256.714720  	0.009629 
2258.643536  	0.009343 
2260.572352  	0.009309 
2262.501168  	0.009595 
2264.429984  	0.009652 
2266.358800  	0.009840 
2268.287616  	0.009921 
2270.216432  	0.009989 
2272.145248  	0.009741 
2274.074064  	0.009748 
2276.002880  	0.009848 
2277.931696  	0.010018 
2279.860512  	0.010148 
2281.789328  	0.010524 
2283.718144  	0.010895 
2285.646960  	0.011139 
2287.575776  	0.010814 
2289.504592  	0.010882 
2291.433408  	0.010945 
2293.362224  	0.011118 
2295.291040  	0.011477 
2297.219856  	0.011648 
2299.148672  	0.011675 
2301.077488  	0.011961 
2303.006304  	0.012037 
2304.935120  	0.012080 
2306.863936  	0.012285 
2308.792752  	0.012641 
2310.721568  	0.013097 
2312.650384  	0.013753 
2314.579200  	0.013710 
2316.508016  	0.013592 
2318.436832  	0.013868 
2320.365648  	0.014773 
2322.294464  	0.015699 
2324.223280  	0.015797 
2326.152096  	0.014437 
2328.080912  	0.014203 
2330.009728  	0.014795 
2331.938544  	0.015255 
2333.867360  	0.014517 
2335.796176  	0.014005 
2337.724992  	0.014377 
2339.653808  	0.014837 
2341.582624  	0.014884 
2343.511440  	0.015520 
2345.440256  	0.016513 
2347.369072  	0.015491 
2349.297888  	0.013356 
2351.226704  	0.012917 
2353.155520  	0.013627 
2355.084336  	0.014562 
2357.013152  	0.015421 
2358.941968  	0.016270 
2360.870784  	0.017078 
2362.799600  	0.016994 
2364.728416  	0.016439 
2366.657232  	0.016415 
2368.586048  	0.016570 
2370.514864  	0.016596 
2372.443680  	0.015947 
2374.372496  	0.015183 
2376.301312  	0.014695 
2378.230128  	0.014300 
2380.158944  	0.013611 
2382.087760  	0.012662 
2384.016576  	0.011770 
2385.945392  	0.011018 
2387.874208  	0.010680 
2389.803024  	0.010636 
2391.731840  	0.010598 
2393.660656  	0.010553 
2395.589472  	0.010452 
2397.518288  	0.010461 
2399.447104  	0.010637 
2401.375920  	0.011024 
2403.304736  	0.011236 
2405.233552  	0.011100 
2407.162368  	0.010997 
2409.091184  	0.011011 
2411.020000  	0.010910 
2412.948816  	0.010998 
2414.877632  	0.011217 
2416.806448  	0.011401 
2418.735264  	0.011420 
2420.664080  	0.011630 
2422.592896  	0.011760 
2424.521712  	0.011851 
2426.450528  	0.011928 
2428.379344  	0.012063 
2430.308160  	0.012181 
2432.236976  	0.012395 
2434.165792  	0.012546 
2436.094608  	0.012567 
2438.023424  	0.012515 
2439.952240  	0.012448 
2441.881056  	0.012550 
2443.809872  	0.012696 
2445.738688  	0.012763 
2447.667504  	0.013041 
2449.596320  	0.013376 
2451.525136  	0.013532 
2453.453952  	0.013476 
2455.382768  	0.013580 
2457.311584  	0.013610 
2459.240400  	0.013352 
2461.169216  	0.013150 
2463.098032  	0.013380 
2465.026848  	0.013564 
2466.955664  	0.013677 
2468.884480  	0.013807 
2470.813296  	0.013912 
2472.742112  	0.013872 
2474.670928  	0.014034 
2476.599744  	0.014230 
2478.528560  	0.014565 
2480.457376  	0.014654 
2482.386192  	0.014565 
2484.315008  	0.014699 
2486.243824  	0.014847 
2488.172640  	0.015156 
2490.101456  	0.015391 
2492.030272  	0.015358 
2493.959088  	0.015330 
2495.887904  	0.015323 
2497.816720  	0.015510 
2499.745536  	0.015448 
2501.674352  	0.015571 
2503.603168  	0.015609 
2505.531984  	0.015641 
2507.460800  	0.015625 
2509.389616  	0.015802 
2511.318432  	0.015899 
2513.247248  	0.015838 
2515.176064  	0.015932 
2517.104880  	0.016189 
2519.033696  	0.016439 
2520.962512  	0.016407 
2522.891328  	0.016545 
2524.820144  	0.016755 
2526.748960  	0.016635 
2528.677776  	0.016746 
2530.606592  	0.017064 
2532.535408  	0.017125 
2534.464224  	0.016937 
2536.393040  	0.016982 
2538.321856  	0.017245 
2540.250672  	0.017314 
2542.179488  	0.017415 
2544.108304  	0.017620 
2546.037120  	0.017769 
2547.965936  	0.017841 
2549.894752  	0.017789 
2551.823568  	0.017772 
2553.752384  	0.017828 
2555.681200  	0.018022 
2557.610016  	0.018365 
2559.538832  	0.018541 
2561.467648  	0.018740 
2563.396464  	0.018713 
2565.325280  	0.018752 
2567.254096  	0.019112 
2569.182912  	0.019407 
2571.111728  	0.019534 
2573.040544  	0.019692 
2574.969360  	0.020004 
2576.898176  	0.020218 
2578.826992  	0.020345 
2580.755808  	0.020442 
2582.684624  	0.020690 
2584.613440  	0.020725 
2586.542256  	0.020755 
2588.471072  	0.020887 
2590.399888  	0.020906 
2592.328704  	0.021065 
2594.257520  	0.021425 
2596.186336  	0.021668 
2598.115152  	0.021780 
2600.043968  	0.021797 
2601.972784  	0.021963 
2603.901600  	0.022009 
2605.830416  	0.022116 
2607.759232  	0.022223 
2609.688048  	0.022298 
2611.616864  	0.022575 
2613.545680  	0.022938 
2615.474496  	0.023109 
2617.403312  	0.023316 
2619.332128  	0.023506 
2621.260944  	0.023593 
2623.189760  	0.023664 
2625.118576  	0.023856 
2627.047392  	0.024140 
2628.976208  	0.024321 
2630.905024  	0.024430 
2632.833840  	0.024711 
2634.762656  	0.024940 
2636.691472  	0.025142 
2638.620288  	0.025412 
2640.549104  	0.025613 
2642.477920  	0.025796 
2644.406736  	0.025966 
2646.335552  	0.026194 
2648.264368  	0.026446 
2650.193184  	0.026661 
2652.122000  	0.026904 
2654.050816  	0.027161 
2655.979632  	0.027345 
2657.908448  	0.027483 
2659.837264  	0.027624 
2661.766080  	0.027817 
2663.694896  	0.027890 
2665.623712  	0.027962 
2667.552528  	0.028241 
2669.481344  	0.028476 
2671.410160  	0.028681 
2673.338976  	0.028817 
2675.267792  	0.029007 
2677.196608  	0.029203 
2679.125424  	0.029337 
2681.054240  	0.029493 
2682.983056  	0.029697 
2684.911872  	0.029889 
2686.840688  	0.030064 
2688.769504  	0.030206 
2690.698320  	0.030310 
2692.627136  	0.030496 
2694.555952  	0.030731 
2696.484768  	0.030910 
2698.413584  	0.031104 
2700.342400  	0.031186 
2702.271216  	0.031332 
2704.200032  	0.031496 
2706.128848  	0.031666 
2708.057664  	0.031962 
2709.986480  	0.032212 
2711.915296  	0.032396 
2713.844112  	0.032660 
2715.772928  	0.032790 
2717.701744  	0.032882 
2719.630560  	0.033119 
2721.559376  	0.033369 
2723.488192  	0.033466 
2725.417008  	0.033648 
2727.345824  	0.033899 
2729.274640  	0.034083 
2731.203456  	0.034166 
2733.132272  	0.034422 
2735.061088  	0.034758 
2736.989904  	0.034977 
2738.918720  	0.035177 
2740.847536  	0.035257 
2742.776352  	0.035385 
2744.705168  	0.035595 
2746.633984  	0.035793 
2748.562800  	0.035998 
2750.491616  	0.036126 
2752.420432  	0.036253 
2754.349248  	0.036251 
2756.278064  	0.036330 
2758.206880  	0.036418 
2760.135696  	0.036524 
2762.064512  	0.036591 
2763.993328  	0.036616 
2765.922144  	0.036587 
2767.850960  	0.036546 
2769.779776  	0.036510 
2771.708592  	0.036467 
2773.637408  	0.036500 
2775.566224  	0.036544 
2777.495040  	0.036546 
2779.423856  	0.036463 
2781.352672  	0.036325 
2783.281488  	0.036373 
2785.210304  	0.036454 
2787.139120  	0.036547 
2789.067936  	0.036606 
2790.996752  	0.036526 
2792.925568  	0.036391 
2794.854384  	0.036394 
2796.783200  	0.036413 
2798.712016  	0.036478 
2800.640832  	0.036545 
2802.569648  	0.036559 
2804.498464  	0.036529 
2806.427280  	0.036537 
2808.356096  	0.036599 
2810.284912  	0.036599 
2812.213728  	0.036601 
2814.142544  	0.036773 
2816.071360  	0.036789 
2818.000176  	0.036816 
2819.928992  	0.036789 
2821.857808  	0.036841 
2823.786624  	0.036987 
2825.715440  	0.037052 
2827.644256  	0.036971 
2829.573072  	0.036878 
2831.501888  	0.036778 
2833.430704  	0.036624 
2835.359520  	0.036478 
2837.288336  	0.036472 
2839.217152  	0.036479 
2841.145968  	0.036376 
2843.074784  	0.036376 
2845.003600  	0.036419 
2846.932416  	0.036602 
2848.861232  	0.036819 
2850.790048  	0.036723 
2852.718864  	0.036592 
2854.647680  	0.036515 
2856.576496  	0.036455 
2858.505312  	0.036392 
2860.434128  	0.036317 
2862.362944  	0.036307 
2864.291760  	0.036294 
2866.220576  	0.036320 
2868.149392  	0.036472 
2870.078208  	0.036652 
2872.007024  	0.036960 
2873.935840  	0.037331 
2875.864656  	0.037761 
2877.793472  	0.038291 
2879.722288  	0.038778 
2881.651104  	0.039244 
2883.579920  	0.039614 
2885.508736  	0.039875 
2887.437552  	0.040208 
2889.366368  	0.040335 
2891.295184  	0.040257 
2893.224000  	0.040189 
2895.152816  	0.040186 
2897.081632  	0.039938 
2899.010448  	0.039450 
2900.939264  	0.039201 
2902.868080  	0.039464 
2904.796896  	0.039783 
2906.725712  	0.040050 
2908.654528  	0.040362 
2910.583344  	0.040843 
2912.512160  	0.041620 
2914.440976  	0.042476 
2916.369792  	0.043365 
2918.298608  	0.044074 
2920.227424  	0.044458 
2922.156240  	0.044878 
2924.085056  	0.045592 
2926.013872  	0.046297 
2927.942688  	0.047013 
2929.871504  	0.047800 
2931.800320  	0.048616 
2933.729136  	0.049476 
2935.657952  	0.050212 
2937.586768  	0.050807 
2939.515584  	0.051402 
2941.444400  	0.051995 
2943.373216  	0.052345 
2945.302032  	0.052447 
2947.230848  	0.052505 
2949.159664  	0.052648 
2951.088480  	0.052611 
2953.017296  	0.052457 
2954.946112  	0.052110 
2956.874928  	0.051790 
2958.803744  	0.051376 
2960.732560  	0.050776 
2962.661376  	0.050051 
2964.590192  	0.049571 
2966.519008  	0.048951 
2968.447824  	0.048161 
2970.376640  	0.047387 
2972.305456  	0.046503 
2974.234272  	0.045798 
2976.163088  	0.045289 
2978.091904  	0.044785 
2980.020720  	0.044436 
2981.949536  	0.044321 
2983.878352  	0.044307 
2985.807168  	0.044279 
2987.735984  	0.044458 
2989.664800  	0.044927 
2991.593616  	0.045844 
2993.522432  	0.046455 
2995.451248  	0.046839 
2997.380064  	0.047569 
2999.308880  	0.048276 
3001.237696  	0.048815 
3003.166512  	0.049254 
3005.095328  	0.049684 
3007.024144  	0.050246 
3008.952960  	0.050965 
3010.881776  	0.051514 
3012.810592  	0.051922 
3014.739408  	0.052444 
3016.668224  	0.053058 
3018.597040  	0.053618 
3020.525856  	0.053871 
3022.454672  	0.054358 
3024.383488  	0.055022 
3026.312304  	0.055577 
3028.241120  	0.055917 
3030.169936  	0.056287 
3032.098752  	0.056924 
3034.027568  	0.057426 
3035.956384  	0.057907 
3037.885200  	0.058270 
3039.814016  	0.058606 
3041.742832  	0.059134 
3043.671648  	0.059730 
3045.600464  	0.060548 
3047.529280  	0.061155 
3049.458096  	0.061524 
3051.386912  	0.062054 
3053.315728  	0.062589 
3055.244544  	0.063026 
3057.173360  	0.063802 
3059.102176  	0.064468 
3061.030992  	0.065048 
3062.959808  	0.065610 
3064.888624  	0.066482 
3066.817440  	0.067454 
3068.746256  	0.068358 
3070.675072  	0.069119 
3072.603888  	0.069733 
3074.532704  	0.070430 
3076.461520  	0.071147 
3078.390336  	0.071909 
3080.319152  	0.072829 
3082.247968  	0.073549 
3084.176784  	0.074250 
3086.105600  	0.075066 
3088.034416  	0.075802 
3089.963232  	0.076543 
3091.892048  	0.077292 
3093.820864  	0.078039 
3095.749680  	0.079000 
3097.678496  	0.079855 
3099.607312  	0.080686 
3101.536128  	0.081650 
3103.464944  	0.082247 
3105.393760  	0.082903 
3107.322576  	0.083724 
3109.251392  	0.084538 
3111.180208  	0.085173 
3113.109024  	0.085417 
3115.037840  	0.085778 
3116.966656  	0.086511 
3118.895472  	0.087302 
3120.824288  	0.087813 
3122.753104  	0.088296 
3124.681920  	0.088893 
3126.610736  	0.089377 
3128.539552  	0.089733 
3130.468368  	0.089854 
3132.397184  	0.090403 
3134.326000  	0.090977 
3136.254816  	0.091153 
3138.183632  	0.091484 
3140.112448  	0.092244 
3142.041264  	0.092806 
3143.970080  	0.093217 
3145.898896  	0.093636 
3147.827712  	0.094048 
3149.756528  	0.094483 
3151.685344  	0.095009 
3153.614160  	0.095539 
3155.542976  	0.095992 
3157.471792  	0.096589 
3159.400608  	0.096953 
3161.329424  	0.097282 
3163.258240  	0.097795 
3165.187056  	0.098191 
3167.115872  	0.098666 
3169.044688  	0.099290 
3170.973504  	0.099569 
3172.902320  	0.099674 
3174.831136  	0.099683 
3176.759952  	0.099821 
3178.688768  	0.100189 
3180.617584  	0.100358 
3182.546400  	0.100270 
3184.475216  	0.100278 
3186.404032  	0.100435 
3188.332848  	0.100362 
3190.261664  	0.100036 
3192.190480  	0.099699 
3194.119296  	0.099634 
3196.048112  	0.099535 
3197.976928  	0.099312 
3199.905744  	0.099020 
3201.834560  	0.098622 
3203.763376  	0.098234 
3205.692192  	0.097796 
3207.621008  	0.097201 
3209.549824  	0.096845 
3211.478640  	0.096550 
3213.407456  	0.096266 
3215.336272  	0.096014 
3217.265088  	0.095492 
3219.193904  	0.095206 
3221.122720  	0.095011 
3223.051536  	0.094618 
3224.980352  	0.094327 
3226.909168  	0.093924 
3228.837984  	0.093450 
3230.766800  	0.093275 
3232.695616  	0.092924 
3234.624432  	0.092448 
3236.553248  	0.092248 
3238.482064  	0.092373 
3240.410880  	0.092567 
3242.339696  	0.092460 
3244.268512  	0.092422 
3246.197328  	0.092692 
3248.126144  	0.092538 
3250.054960  	0.092655 
3251.983776  	0.092857 
3253.912592  	0.092968 
3255.841408  	0.093248 
3257.770224  	0.093767 
3259.699040  	0.094081 
3261.627856  	0.094242 
3263.556672  	0.094295 
3265.485488  	0.094567 
3267.414304  	0.094776 
3269.343120  	0.094914 
3271.271936  	0.094975 
3273.200752  	0.095208 
3275.129568  	0.095662 
3277.058384  	0.095881 
3278.987200  	0.095864 
3280.916016  	0.095984 
3282.844832  	0.096299 
3284.773648  	0.096398 
3286.702464  	0.096352 
3288.631280  	0.096571 
3290.560096  	0.096919 
3292.488912  	0.097388 
3294.417728  	0.097606 
3296.346544  	0.097831 
3298.275360  	0.098323 
3300.204176  	0.098760 
3302.132992  	0.099199 
3304.061808  	0.099574 
3305.990624  	0.099803 
3307.919440  	0.099988 
3309.848256  	0.100245 
3311.777072  	0.100862 
3313.705888  	0.101420 
3315.634704  	0.101365 
3317.563520  	0.101552 
3319.492336  	0.102181 
3321.421152  	0.102259 
3323.349968  	0.102412 
3325.278784  	0.102819 
3327.207600  	0.103068 
3329.136416  	0.103047 
3331.065232  	0.102856 
3332.994048  	0.102861 
3334.922864  	0.103313 
3336.851680  	0.103684 
3338.780496  	0.103329 
3340.709312  	0.102651 
3342.638128  	0.102368 
3344.566944  	0.102207 
3346.495760  	0.102084 
3348.424576  	0.101682 
3350.353392  	0.101317 
3352.282208  	0.101044 
3354.211024  	0.100677 
3356.139840  	0.100181 
3358.068656  	0.099885 
3359.997472  	0.099447 
3361.926288  	0.099094 
3363.855104  	0.098635 
3365.783920  	0.098404 
3367.712736  	0.098117 
3369.641552  	0.097622 
3371.570368  	0.097285 
3373.499184  	0.096900 
3375.428000  	0.096230 
3377.356816  	0.095810 
3379.285632  	0.095855 
3381.214448  	0.095593 
3383.143264  	0.094978 
3385.072080  	0.094792 
3387.000896  	0.094426 
3388.929712  	0.093745 
3390.858528  	0.093091 
3392.787344  	0.093018 
3394.716160  	0.092707 
3396.644976  	0.092222 
3398.573792  	0.091952 
3400.502608  	0.091292 
3402.431424  	0.090724 
3404.360240  	0.090332 
3406.289056  	0.089750 
3408.217872  	0.089288 
3410.146688  	0.088958 
3412.075504  	0.088544 
3414.004320  	0.088107 
3415.933136  	0.087457 
3417.861952  	0.086722 
3419.790768  	0.086374 
3421.719584  	0.086233 
3423.648400  	0.085783 
3425.577216  	0.085081 
3427.506032  	0.084436 
3429.434848  	0.083758 
3431.363664  	0.083077 
3433.292480  	0.082489 
3435.221296  	0.082134 
3437.150112  	0.081566 
3439.078928  	0.080732 
3441.007744  	0.080025 
3442.936560  	0.079658 
3444.865376  	0.078776 
3446.794192  	0.078615 
3448.723008  	0.078425 
3450.651824  	0.077161 
3452.580640  	0.076370 
3454.509456  	0.075841 
3456.438272  	0.075103 
3458.367088  	0.074167 
3460.295904  	0.073522 
3462.224720  	0.073244 
3464.153536  	0.072525 
3466.082352  	0.071657 
3468.011168  	0.070758 
3469.939984  	0.069845 
3471.868800  	0.068812 
3473.797616  	0.067996 
3475.726432  	0.067488 
3477.655248  	0.066348 
3479.584064  	0.065170 
3481.512880  	0.064910 
3483.441696  	0.064341 
3485.370512  	0.063038 
3487.299328  	0.062262 
3489.228144  	0.061554 
3491.156960  	0.060432 
3493.085776  	0.059388 
3495.014592  	0.058706 
3496.943408  	0.058138 
3498.872224  	0.057039 
3500.801040  	0.055807 
3502.729856  	0.055823 
3504.658672  	0.055677 
3506.587488  	0.054159 
3508.516304  	0.053187 
3510.445120  	0.053257 
3512.373936  	0.052605 
3514.302752  	0.051467 
3516.231568  	0.050502 
3518.160384  	0.049846 
3520.089200  	0.048859 
3522.018016  	0.048084 
3523.946832  	0.048092 
3525.875648  	0.047241 
3527.804464  	0.046890 
3529.733280  	0.046688 
3531.662096  	0.045848 
3533.590912  	0.044513 
3535.519728  	0.044216 
3537.448544  	0.044278 
3539.377360  	0.043012 
3541.306176  	0.041771 
3543.234992  	0.040945 
3545.163808  	0.041447 
3547.092624  	0.041960 
3549.021440  	0.040284 
3550.950256  	0.038598 
3552.879072  	0.038742 
3554.807888  	0.038056 
3556.736704  	0.036867 
3558.665520  	0.035837 
3560.594336  	0.035176 
3562.523152  	0.034060 
3564.451968  	0.032360 
3566.380784  	0.033744 
3568.309600  	0.036401 
3570.238416  	0.034282 
3572.167232  	0.031915 
3574.096048  	0.030635 
3576.024864  	0.029975 
3577.953680  	0.029529 
3579.882496  	0.028866 
3581.811312  	0.027847 
3583.740128  	0.025824 
3585.668944  	0.024557 
3587.597760  	0.027426 
3589.526576  	0.027418 
3591.455392  	0.023687 
3593.384208  	0.022452 
3595.313024  	0.023116 
3597.241840  	0.022364 
3599.170656  	0.021025 
3601.099472  	0.021116 
3603.028288  	0.020134 
3604.957104  	0.017629 
3606.885920  	0.016607 
3608.814736  	0.017648 
3610.743552  	0.015720 
3612.672368  	0.014959 
3614.601184  	0.015127 
3616.530000  	0.012409 
3618.458816  	0.012752 
3620.387632  	0.014950 
3622.316448  	0.012954 
3624.245264  	0.009863 
3626.174080  	0.006317 
3628.102896  	0.007094 
3630.031712  	0.012993 
3631.960528  	0.008996 
3633.889344  	0.007676 
3635.818160  	0.006759 
3637.746976  	0.005338 
3639.675792  	0.004458 
3641.604608  	0.003365 
3643.533424  	0.001762 
3645.462240  	-0.001261 
3647.391056  	-0.001303 
3649.319872  	0.002613 
3651.248688  	0.005701 
3653.177504  	0.000722 
3655.106320  	-0.001528 
3657.035136  	0.000903 
3658.963952  	-0.000395 
3660.892768  	-0.001593 
3662.821584  	-0.002398 
3664.750400  	-0.003532 
3666.679216  	-0.005666 
3668.608032  	-0.006495 
3670.536848  	-0.002094 
3672.465664  	-0.005216 
3674.394480  	-0.006780 
3676.323296  	0.000791 
3678.252112  	-0.002015 
3680.180928  	-0.002914 
3682.109744  	-0.003832 
3684.038560  	-0.005021 
3685.967376  	-0.007310 
3687.896192  	-0.006856 
3689.825008  	-0.002679 
3691.753824  	-0.001537 
3693.682640  	-0.003338 
3695.611456  	-0.004283 
3697.540272  	-0.004407 
3699.469088  	-0.005760 
3701.397904  	-0.004370 
3703.326720  	-0.002942 
3705.255536  	-0.004528 
3707.184352  	-0.006089 
3709.113168  	-0.006487 
3711.041984  	-0.003717 
3712.970800  	-0.000778 
3714.899616  	-0.002634 
3716.828432  	-0.004754 
3718.757248  	-0.004810 
3720.686064  	-0.005020 
3722.614880  	-0.004435 
3724.543696  	-0.004077 
3726.472512  	-0.002821 
3728.401328  	-0.003691 
3730.330144  	-0.006590 
3732.258960  	-0.006398 
3734.187776  	-0.004751 
3736.116592  	-0.000325 
3738.045408  	-0.001326 
3739.974224  	-0.004230 
3741.903040  	-0.007611 
3743.831856  	-0.006037 
3745.760672  	-0.001510 
3747.689488  	-0.006337 
3749.618304  	-0.005494 
3751.547120  	-0.000889 
3753.475936  	-0.000788 
3755.404752  	-0.004280 
3757.333568  	-0.004912 
3759.262384  	-0.003419 
3761.191200  	-0.002772 
3763.120016  	-0.005203 
3765.048832  	-0.004484 
3766.977648  	-0.004302 
3768.906464  	-0.004249 
3770.835280  	-0.001675 
3772.764096  	-0.002841 
3774.692912  	-0.004234 
3776.621728  	-0.005431 
3778.550544  	-0.004913 
3780.479360  	-0.002547 
3782.408176  	-0.004097 
3784.336992  	-0.004028 
3786.265808  	-0.003199 
3788.194624  	-0.003601 
3790.123440  	-0.003948 
3792.052256  	-0.004382 
3793.981072  	-0.005686 
3795.909888  	-0.004951 
3797.838704  	-0.004820 
3799.767520  	-0.006986 
3801.696336  	-0.002496 
3803.625152  	-0.003162 
3805.553968  	-0.005911 
3807.482784  	-0.002195 
3809.411600  	-0.002763 
3811.340416  	-0.004284 
3813.269232  	-0.006485 
3815.198048  	-0.005995 
3817.126864  	-0.003406 
3819.055680  	-0.006841 
3820.984496  	-0.002778 
3822.913312  	-0.000775 
3824.842128  	-0.004517 
3826.770944  	-0.004217 
3828.699760  	-0.004879 
3830.628576  	-0.005460 
3832.557392  	-0.004761 
3834.486208  	-0.005989 
3836.415024  	-0.006340 
3838.343840  	-0.004012 
3840.272656  	-0.002750 
3842.201472  	-0.003365 
3844.130288  	-0.002848 
3846.059104  	-0.003898 
3847.987920  	-0.006088 
3849.916736  	-0.008565 
3851.845552  	-0.009077 
3853.774368  	0.000675 
3855.703184  	0.000643 
3857.632000  	-0.002714 
3859.560816  	-0.005289 
3861.489632  	-0.005941 
3863.418448  	-0.004860 
3865.347264  	-0.002408 
3867.276080  	-0.005417 
3869.204896  	-0.005008 
3871.133712  	-0.001921 
3873.062528  	-0.003948 
3874.991344  	-0.002140 
3876.920160  	-0.004629 
3878.848976  	-0.006002 
3880.777792  	-0.003140 
3882.706608  	-0.004277 
3884.635424  	-0.004890 
3886.564240  	-0.001474 
3888.493056  	-0.004767 
3890.421872  	-0.005064 
3892.350688  	-0.002298 
3894.279504  	-0.003474 
3896.208320  	-0.005763 
3898.137136  	-0.006067 
3900.065952  	-0.004476 
3901.994768  	-0.003966 
3903.923584  	-0.002097 
3905.852400  	-0.001338 
3907.781216  	-0.003301 
3909.710032  	-0.004448 
3911.638848  	-0.004420 
3913.567664  	-0.004843 
3915.496480  	-0.004897 
3917.425296  	-0.003296 
3919.354112  	-0.003325 
3921.282928  	-0.004101 
3923.211744  	-0.004500 
3925.140560  	-0.003266 
3927.069376  	-0.004064 
3928.998192  	-0.004879 
3930.927008  	-0.004190 
3932.855824  	-0.002881 
3934.784640  	-0.003278 
3936.713456  	-0.003919 
3938.642272  	-0.004047 
3940.571088  	-0.004623 
3942.499904  	-0.003665 
3944.428720  	-0.003494 
3946.357536  	-0.004524 
3948.286352  	-0.004008 
3950.215168  	-0.003481 
3952.143984  	-0.003711 
3954.072800  	-0.004056 
3956.001616  	-0.004168 
3957.930432  	-0.003984 
3959.859248  	-0.003968 
3961.788064  	-0.003643 
3963.716880  	-0.003429 
3965.645696  	-0.003777 
3967.574512  	-0.004242 
3969.503328  	-0.004117 
3971.432144  	-0.003923 
3973.360960  	-0.003775 
3975.289776  	-0.003523 
3977.218592  	-0.003667 
3979.147408  	-0.003982 
3981.076224  	-0.004023 
3983.005040  	-0.003680 
3984.933856  	-0.003747 
3986.862672  	-0.003949 
3988.791488  	-0.004147 
3990.720304  	-0.004058 
3992.649120  	-0.004030 
3994.577936  	-0.003971 
3996.506752  	-0.004058 
3998.435568  	-0.004049 
4000.364384  	-0.004029 