##TITLE=No Description
##DATA TYPE=INFRARED SPECTRUM
##XUNITS=1/CM
##YUNITS=Abs
399.264912  	0.301701 
401.193728  	0.294672 
403.122544  	0.289537 
405.051360  	0.289767 
406.980176  	0.293918 
408.908992  	0.291378 
410.837808  	0.292264 
412.766624  	0.293039 
414.695440  	0.296029 
416.624256  	0.294190 
418.553072  	0.292751 
420.481888  	0.297736 
422.410704  	0.300198 
424.339520  	0.292486 
426.268336  	0.286676 
428.197152  	0.283833 
430.125968  	0.286045 
432.054784  	0.289587 
433.983600  	0.290188 
435.912416  	0.285487 
437.841232  	0.286811 
439.770048  	0.288960 
441.698864  	0.287902 
443.627680  	0.282240 
445.556496  	0.281099 
447.485312  	0.282452 
449.414128  	0.286557 
451.342944  	0.286270 
453.271760  	0.285332 
455.200576  	0.286270 
457.129392  	0.287685 
459.058208  	0.289846 
460.987024  	0.294902 
462.915840  	0.295440 
464.844656  	0.296612 
466.773472  	0.296099 
468.702288  	0.298266 
470.631104  	0.298198 
472.559920  	0.301308 
474.488736  	0.302604 
476.417552  	0.303755 
478.346368  	0.304950 
480.275184  	0.306161 
482.204000  	0.306955 
484.132816  	0.310589 
486.061632  	0.313236 
487.990448  	0.316613 
489.919264  	0.315440 
491.848080  	0.314386 
493.776896  	0.315861 
495.705712  	0.316791 
497.634528  	0.316913 
499.563344  	0.318617 
501.492160  	0.316485 
503.420976  	0.318966 
505.349792  	0.321855 
507.278608  	0.323764 
509.207424  	0.326790 
511.136240  	0.330402 
513.065056  	0.331934 
514.993872  	0.335960 
516.922688  	0.339634 
518.851504  	0.342512 
520.780320  	0.342551 
522.709136  	0.344850 
524.637952  	0.347512 
526.566768  	0.349963 
528.495584  	0.350270 
530.424400  	0.351445 
532.353216  	0.351267 
534.282032  	0.349081 
536.210848  	0.343994 
538.139664  	0.340523 
540.068480  	0.338046 
541.997296  	0.335944 
543.926112  	0.331485 
545.854928  	0.327990 
547.783744  	0.325464 
549.712560  	0.324479 
551.641376  	0.323602 
553.570192  	0.321403 
555.499008  	0.318231 
557.427824  	0.316111 
559.356640  	0.312705 
561.285456  	0.309769 
563.214272  	0.307611 
565.143088  	0.305787 
567.071904  	0.303006 
569.000720  	0.299977 
570.929536  	0.297393 
572.858352  	0.295725 
574.787168  	0.294195 
576.715984  	0.293512 
578.644800  	0.291264 
580.573616  	0.287754 
582.502432  	0.283421 
584.431248  	0.280572 
586.360064  	0.277632 
588.288880  	0.275449 
590.217696  	0.273612 
592.146512  	0.272142 
594.075328  	0.270227 
596.004144  	0.269192 
597.932960  	0.267836 
599.861776  	0.266975 
601.790592  	0.265995 
603.719408  	0.265252 
605.648224  	0.265292 
607.577040  	0.265214 
609.505856  	0.264193 
611.434672  	0.263477 
613.363488  	0.263032 
615.292304  	0.262883 
617.221120  	0.262473 
619.149936  	0.262222 
621.078752  	0.261511 
623.007568  	0.261058 
624.936384  	0.260483 
626.865200  	0.260122 
628.794016  	0.259819 
630.722832  	0.259917 
632.651648  	0.260344 
634.580464  	0.261452 
636.509280  	0.262998 
638.438096  	0.264621 
640.366912  	0.265044 
642.295728  	0.264944 
644.224544  	0.263768 
646.153360  	0.261694 
648.082176  	0.258697 
650.010992  	0.256132 
651.939808  	0.253611 
653.868624  	0.250596 
655.797440  	0.247421 
657.726256  	0.244562 
659.655072  	0.241498 
661.583888  	0.237971 
663.512704  	0.234886 
665.441520  	0.232147 
667.370336  	0.225890 
669.299152  	0.219486 
671.227968  	0.219556 
673.156784  	0.217815 
675.085600  	0.215450 
677.014416  	0.213444 
678.943232  	0.211918 
680.872048  	0.210748 
682.800864  	0.209514 
684.729680  	0.208370 
686.658496  	0.207594 
688.587312  	0.207268 
690.516128  	0.206705 
692.444944  	0.205714 
694.373760  	0.205106 
696.302576  	0.204130 
698.231392  	0.202824 
700.160208  	0.200987 
702.089024  	0.199234 
704.017840  	0.197628 
705.946656  	0.195769 
707.875472  	0.194246 
709.804288  	0.192775 
711.733104  	0.191112 
713.661920  	0.189405 
715.590736  	0.188447 
717.519552  	0.188398 
719.448368  	0.189360 
721.377184  	0.190864 
723.306000  	0.192704 
725.234816  	0.194138 
727.163632  	0.194566 
729.092448  	0.193618 
731.021264  	0.191091 
732.950080  	0.187997 
734.878896  	0.185174 
736.807712  	0.182373 
738.736528  	0.180155 
740.665344  	0.178655 
742.594160  	0.177185 
744.522976  	0.176308 
746.451792  	0.175416 
748.380608  	0.174421 
750.309424  	0.173692 
752.238240  	0.173246 
754.167056  	0.172964 
756.095872  	0.172115 
758.024688  	0.171906 
759.953504  	0.172382 
761.882320  	0.173635 
763.811136  	0.174856 
765.739952  	0.174823 
767.668768  	0.173768 
769.597584  	0.172345 
771.526400  	0.171673 
773.455216  	0.173715 
775.384032  	0.178273 
777.312848  	0.184555 
779.241664  	0.190183 
781.170480  	0.192107 
783.099296  	0.189795 
785.028112  	0.184992 
786.956928  	0.179612 
788.885744  	0.175275 
790.814560  	0.172162 
792.743376  	0.170016 
794.672192  	0.169189 
796.601008  	0.168985 
798.529824  	0.166926 
800.458640  	0.162750 
802.387456  	0.159243 
804.316272  	0.157588 
806.245088  	0.156899 
808.173904  	0.156898 
810.102720  	0.157043 
812.031536  	0.157284 
813.960352  	0.158186 
815.889168  	0.159268 
817.817984  	0.160234 
819.746800  	0.161204 
821.675616  	0.161945 
823.604432  	0.162244 
825.533248  	0.162331 
827.462064  	0.162368 
829.390880  	0.162016 
831.319696  	0.161112 
833.248512  	0.160101 
835.177328  	0.158619 
837.106144  	0.156336 
839.034960  	0.153405 
840.963776  	0.150229 
842.892592  	0.147043 
844.821408  	0.143965 
846.750224  	0.140972 
848.679040  	0.138346 
850.607856  	0.136580 
852.536672  	0.135041 
854.465488  	0.133479 
856.394304  	0.132277 
858.323120  	0.131425 
860.251936  	0.129836 
862.180752  	0.127817 
864.109568  	0.125478 
866.038384  	0.123108 
867.967200  	0.121273 
869.896016  	0.119727 
871.824832  	0.118934 
873.753648  	0.118887 
875.682464  	0.119734 
877.611280  	0.120289 
879.540096  	0.121327 
881.468912  	0.123551 
883.397728  	0.124908 
885.326544  	0.126032 
887.255360  	0.126658 
889.184176  	0.125724 
891.112992  	0.123897 
893.041808  	0.122475 
894.970624  	0.120473 
896.899440  	0.117438 
898.828256  	0.113430 
900.757072  	0.109759 
902.685888  	0.107004 
904.614704  	0.105375 
906.543520  	0.105538 
908.472336  	0.107146 
910.401152  	0.109968 
912.329968  	0.113178 
914.258784  	0.116740 
916.187600  	0.120109 
918.116416  	0.122876 
920.045232  	0.124955 
921.974048  	0.126189 
923.902864  	0.126648 
925.831680  	0.126563 
927.760496  	0.126439 
929.689312  	0.126703 
931.618128  	0.127701 
933.546944  	0.128686 
935.475760  	0.129384 
937.404576  	0.129623 
939.333392  	0.129651 
941.262208  	0.130150 
943.191024  	0.131913 
945.119840  	0.135838 
947.048656  	0.141988 
948.977472  	0.149861 
950.906288  	0.159226 
952.835104  	0.169586 
954.763920  	0.180565 
956.692736  	0.190931 
958.621552  	0.199923 
960.550368  	0.206128 
962.479184  	0.209239 
964.408000  	0.208737 
966.336816  	0.204544 
968.265632  	0.197095 
970.194448  	0.186734 
972.123264  	0.174446 
974.052080  	0.161535 
975.980896  	0.148812 
977.909712  	0.136803 
979.838528  	0.126140 
981.767344  	0.117345 
983.696160  	0.110678 
985.624976  	0.106375 
987.553792  	0.104782 
989.482608  	0.105877 
991.411424  	0.109274 
993.340240  	0.114296 
995.269056  	0.120457 
997.197872  	0.127346 
999.126688  	0.134480 
1001.055504  	0.141570 
1002.984320  	0.148353 
1004.913136  	0.155000 
1006.841952  	0.161400 
1008.770768  	0.166631 
1010.699584  	0.170235 
1012.628400  	0.172391 
1014.557216  	0.173164 
1016.486032  	0.173131 
1018.414848  	0.172703 
1020.343664  	0.172245 
1022.272480  	0.171290 
1024.201296  	0.169852 
1026.130112  	0.166621 
1028.058928  	0.165352 
1029.987744  	0.168018 
1031.916560  	0.169615 
1033.845376  	0.170432 
1035.774192  	0.171518 
1037.703008  	0.173866 
1039.631824  	0.179501 
1041.560640  	0.187357 
1043.489456  	0.197975 
1045.418272  	0.211154 
1047.347088  	0.225866 
1049.275904  	0.240045 
1051.204720  	0.251559 
1053.133536  	0.259284 
1055.062352  	0.263260 
1056.991168  	0.263576 
1058.919984  	0.264800 
1060.848800  	0.265679 
1062.777616  	0.263128 
1064.706432  	0.256452 
1066.635248  	0.250884 
1068.564064  	0.248893 
1070.492880  	0.244202 
1072.421696  	0.236829 
1074.350512  	0.231287 
1076.279328  	0.228889 
1078.208144  	0.230100 
1080.136960  	0.233632 
1082.065776  	0.238316 
1083.994592  	0.241512 
1085.923408  	0.242532 
1087.852224  	0.240901 
1089.781040  	0.237444 
1091.709856  	0.232557 
1093.638672  	0.225601 
1095.567488  	0.215927 
1097.496304  	0.204795 
1099.425120  	0.193111 
1101.353936  	0.181301 
1103.282752  	0.169611 
1105.211568  	0.158460 
1107.140384  	0.147533 
1109.069200  	0.137212 
1110.998016  	0.127611 
1112.926832  	0.118722 
1114.855648  	0.110615 
1116.784464  	0.102944 
1118.713280  	0.095529 
1120.642096  	0.088630 
1122.570912  	0.082267 
1124.499728  	0.076340 
1126.428544  	0.070946 
1128.357360  	0.065990 
1130.286176  	0.062001 
1132.214992  	0.058516 
1134.143808  	0.055452 
1136.072624  	0.052755 
1138.001440  	0.050609 
1139.930256  	0.048126 
1141.859072  	0.045602 
1143.787888  	0.043044 
1145.716704  	0.040699 
1147.645520  	0.038509 
1149.574336  	0.036814 
1151.503152  	0.035426 
1153.431968  	0.034848 
1155.360784  	0.034836 
1157.289600  	0.035597 
1159.218416  	0.036965 
1161.147232  	0.038954 
1163.076048  	0.041220 
1165.004864  	0.043703 
1166.933680  	0.045922 
1168.862496  	0.048483 
1170.791312  	0.051081 
1172.720128  	0.054065 
1174.648944  	0.056802 
1176.577760  	0.059630 
1178.506576  	0.062419 
1180.435392  	0.065284 
1182.364208  	0.067918 
1184.293024  	0.070978 
1186.221840  	0.074423 
1188.150656  	0.078352 
1190.079472  	0.082647 
1192.008288  	0.087996 
1193.937104  	0.094575 
1195.865920  	0.102003 
1197.794736  	0.110020 
1199.723552  	0.118961 
1201.652368  	0.128241 
1203.581184  	0.137689 
1205.510000  	0.146764 
1207.438816  	0.155273 
1209.367632  	0.163259 
1211.296448  	0.170290 
1213.225264  	0.175969 
1215.154080  	0.180419 
1217.082896  	0.183743 
1219.011712  	0.185943 
1220.940528  	0.187505 
1222.869344  	0.188336 
1224.798160  	0.188408 
1226.726976  	0.187907 
1228.655792  	0.187082 
1230.584608  	0.185593 
1232.513424  	0.183606 
1234.442240  	0.180840 
1236.371056  	0.177422 
1238.299872  	0.172767 
1240.228688  	0.165942 
1242.157504  	0.159004 
1244.086320  	0.153223 
1246.015136  	0.146028 
1247.943952  	0.138082 
1249.872768  	0.130139 
1251.801584  	0.123274 
1253.730400  	0.116411 
1255.659216  	0.109558 
1257.588032  	0.103198 
1259.516848  	0.097176 
1261.445664  	0.091641 
1263.374480  	0.086583 
1265.303296  	0.082232 
1267.232112  	0.078679 
1269.160928  	0.076067 
1271.089744  	0.074184 
1273.018560  	0.073193 
1274.947376  	0.072852 
1276.876192  	0.072827 
1278.805008  	0.072626 
1280.733824  	0.071537 
1282.662640  	0.069549 
1284.591456  	0.067170 
1286.520272  	0.064945 
1288.449088  	0.063393 
1290.377904  	0.062672 
1292.306720  	0.062654 
1294.235536  	0.062452 
1296.164352  	0.061291 
1298.093168  	0.059007 
1300.021984  	0.056174 
1301.950800  	0.053124 
1303.879616  	0.050254 
1305.808432  	0.047259 
1307.737248  	0.044374 
1309.666064  	0.041631 
1311.594880  	0.039432 
1313.523696  	0.037685 
1315.452512  	0.036653 
1317.381328  	0.036034 
1319.310144  	0.035938 
1321.238960  	0.036180 
1323.167776  	0.036899 
1325.096592  	0.037801 
1327.025408  	0.038630 
1328.954224  	0.038714 
1330.883040  	0.038264 
1332.811856  	0.037491 
1334.740672  	0.036959 
1336.669488  	0.036472 
1338.598304  	0.035985 
1340.527120  	0.034861 
1342.455936  	0.034066 
1344.384752  	0.033794 
1346.313568  	0.033955 
1348.242384  	0.034552 
1350.171200  	0.035761 
1352.100016  	0.037268 
1354.028832  	0.039090 
1355.957648  	0.040856 
1357.886464  	0.042827 
1359.815280  	0.044884 
1361.744096  	0.046717 
1363.672912  	0.047861 
1365.601728  	0.049315 
1367.530544  	0.050558 
1369.459360  	0.050732 
1371.388176  	0.050513 
1373.316992  	0.049160 
1375.245808  	0.046003 
1377.174624  	0.043509 
1379.103440  	0.040708 
1381.032256  	0.038032 
1382.961072  	0.036075 
1384.889888  	0.035271 
1386.818704  	0.034256 
1388.747520  	0.032589 
1390.676336  	0.030633 
1392.605152  	0.027604 
1394.533968  	0.025582 
1396.462784  	0.028171 
1398.391600  	0.029479 
1400.320416  	0.029037 
1402.249232  	0.029488 
1404.178048  	0.029900 
1406.106864  	0.030400 
1408.035680  	0.032352 
1409.964496  	0.034807 
1411.893312  	0.037598 
1413.822128  	0.040569 
1415.750944  	0.043846 
1417.679760  	0.045951 
1419.608576  	0.045943 
1421.537392  	0.046542 
1423.466208  	0.046620 
1425.395024  	0.045011 
1427.323840  	0.043955 
1429.252656  	0.041720 
1431.181472  	0.040088 
1433.110288  	0.039960 
1435.039104  	0.040585 
1436.967920  	0.039666 
1438.896736  	0.040441 
1440.825552  	0.041610 
1442.754368  	0.042189 
1444.683184  	0.042417 
1446.612000  	0.042332 
1448.540816  	0.041071 
1450.469632  	0.041416 
1452.398448  	0.042269 
1454.327264  	0.043497 
1456.256080  	0.043224 
1458.184896  	0.040876 
1460.113712  	0.042189 
1462.042528  	0.044046 
1463.971344  	0.044295 
1465.900160  	0.044689 
1467.828976  	0.047165 
1469.757792  	0.050636 
1471.686608  	0.053807 
1473.615424  	0.058744 
1475.544240  	0.064521 
1477.473056  	0.069660 
1479.401872  	0.073424 
1481.330688  	0.076232 
1483.259504  	0.078083 
1485.188320  	0.079358 
1487.117136  	0.079020 
1489.045952  	0.077681 
1490.974768  	0.074330 
1492.903584  	0.072612 
1494.832400  	0.070062 
1496.761216  	0.063991 
1498.690032  	0.058087 
1500.618848  	0.054172 
1502.547664  	0.051243 
1504.476480  	0.048729 
1506.405296  	0.042548 
1508.334112  	0.037558 
1510.262928  	0.037818 
1512.191744  	0.036855 
1514.120560  	0.036291 
1516.049376  	0.035710 
1517.978192  	0.035242 
1519.907008  	0.037088 
1521.835824  	0.037555 
1523.764640  	0.041117 
1525.693456  	0.044622 
1527.622272  	0.046655 
1529.551088  	0.047855 
1531.479904  	0.047992 
1533.408720  	0.044596 
1535.337536  	0.041817 
1537.266352  	0.041374 
1539.195168  	0.036236 
1541.123984  	0.029084 
1543.052800  	0.029209 
1544.981616  	0.028514 
1546.910432  	0.028388 
1548.839248  	0.028760 
1550.768064  	0.028567 
1552.696880  	0.029255 
1554.625696  	0.030102 
1556.554512  	0.031356 
1558.483328  	0.030734 
1560.412144  	0.032369 
1562.340960  	0.038924 
1564.269776  	0.043119 
1566.198592  	0.048183 
1568.127408  	0.052512 
1570.056224  	0.057286 
1571.985040  	0.063669 
1573.913856  	0.068810 
1575.842672  	0.070321 
1577.771488  	0.072162 
1579.700304  	0.073794 
1581.629120  	0.073742 
1583.557936  	0.073238 
1585.486752  	0.074052 
1587.415568  	0.076191 
1589.344384  	0.080334 
1591.273200  	0.085890 
1593.202016  	0.092690 
1595.130832  	0.099598 
1597.059648  	0.106919 
1598.988464  	0.113051 
1600.917280  	0.118369 
1602.846096  	0.121665 
1604.774912  	0.123778 
1606.703728  	0.123814 
1608.632544  	0.122879 
1610.561360  	0.121035 
1612.490176  	0.119905 
1614.418992  	0.118632 
1616.347808  	0.116676 
1618.276624  	0.117214 
1620.205440  	0.121439 
1622.134256  	0.124673 
1624.063072  	0.129985 
1625.991888  	0.136645 
1627.920704  	0.144401 
1629.849520  	0.153329 
1631.778336  	0.162242 
1633.707152  	0.168829 
1635.635968  	0.175753 
1637.564784  	0.184324 
1639.493600  	0.191354 
1641.422416  	0.196115 
1643.351232  	0.200079 
1645.280048  	0.200831 
1647.208864  	0.199710 
1649.137680  	0.200588 
1651.066496  	0.201772 
1652.995312  	0.195627 
1654.924128  	0.192702 
1656.852944  	0.193025 
1658.781760  	0.191122 
1660.710576  	0.187790 
1662.639392  	0.182876 
1664.568208  	0.179017 
1666.497024  	0.177104 
1668.425840  	0.172290 
1670.354656  	0.165751 
1672.283472  	0.162910 
1674.212288  	0.160600 
1676.141104  	0.156086 
1678.069920  	0.155382 
1679.998736  	0.154538 
1681.927552  	0.153764 
1683.856368  	0.149815 
1685.785184  	0.148135 
1687.714000  	0.149598 
1689.642816  	0.148958 
1691.571632  	0.147706 
1693.500448  	0.147128 
1695.429264  	0.143230 
1697.358080  	0.139898 
1699.286896  	0.138091 
1701.215712  	0.131693 
1703.144528  	0.130815 
1705.073344  	0.126998 
1707.002160  	0.121024 
1708.930976  	0.116812 
1710.859792  	0.111478 
1712.788608  	0.105304 
1714.717424  	0.097717 
1716.646240  	0.088046 
1718.575056  	0.075437 
1720.503872  	0.068463 
1722.432688  	0.062535 
1724.361504  	0.054095 
1726.290320  	0.047324 
1728.219136  	0.041590 
1730.147952  	0.036294 
1732.076768  	0.032348 
1734.005584  	0.025813 
1735.934400  	0.020704 
1737.863216  	0.021120 
1739.792032  	0.017803 
1741.720848  	0.016144 
1743.649664  	0.015086 
1745.578480  	0.014381 
1747.507296  	0.013004 
1749.436112  	0.011825 
1751.364928  	0.010207 
1753.293744  	0.009824 
1755.222560  	0.010047 
1757.151376  	0.009231 
1759.080192  	0.008859 
1761.009008  	0.008547 
1762.937824  	0.006840 
1764.866640  	0.007340 
1766.795456  	0.007560 
1768.724272  	0.007038 
1770.653088  	0.006177 
1772.581904  	0.003940 
1774.510720  	0.004028 
1776.439536  	0.005329 
1778.368352  	0.005649 
1780.297168  	0.005241 
1782.225984  	0.004713 
1784.154800  	0.005006 
1786.083616  	0.004321 
1788.012432  	0.004917 
1789.941248  	0.005398 
1791.870064  	0.004253 
1793.798880  	0.002754 
1795.727696  	0.003970 
1797.656512  	0.004068 
1799.585328  	0.004010 
1801.514144  	0.003593 
1803.442960  	0.003767 
1805.371776  	0.003585 
1807.300592  	0.003717 
1809.229408  	0.003388 
1811.158224  	0.003028 
1813.087040  	0.002657 
1815.015856  	0.003220 
1816.944672  	0.003081 
1818.873488  	0.003147 
1820.802304  	0.003201 
1822.731120  	0.003853 
1824.659936  	0.003073 
1826.588752  	0.002567 
1828.517568  	0.002445 
1830.446384  	0.001904 
1832.375200  	0.002286 
1834.304016  	0.002941 
1836.232832  	0.002817 
1838.161648  	0.002958 
1840.090464  	0.002795 
1842.019280  	0.003502 
1843.948096  	0.002333 
1845.876912  	0.001891 
1847.805728  	0.002481 
1849.734544  	0.002789 
1851.663360  	0.002805 
1853.592176  	0.002763 
1855.520992  	0.002579 
1857.449808  	0.002882 
1859.378624  	0.002578 
1861.307440  	0.002384 
1863.236256  	0.002578 
1865.165072  	0.003174 
1867.093888  	0.002973 
1869.022704  	0.002168 
1870.951520  	0.001547 
1872.880336  	0.002275 
1874.809152  	0.002435 
1876.737968  	0.002604 
1878.666784  	0.002237 
1880.595600  	0.002649 
1882.524416  	0.002268 
1884.453232  	0.002258 
1886.382048  	0.002134 
1888.310864  	0.002372 
1890.239680  	0.001747 
1892.168496  	0.002198 
1894.097312  	0.002185 
1896.026128  	0.002349 
1897.954944  	0.002235 
1899.883760  	0.002491 
1901.812576  	0.002286 
1903.741392  	0.002145 
1905.670208  	0.002164 
1907.599024  	0.002586 
1909.527840  	0.002028 
1911.456656  	0.002382 
1913.385472  	0.002537 
1915.314288  	0.003283 
1917.243104  	0.003016 
1919.171920  	0.002627 
1921.100736  	0.002610 
1923.029552  	0.002504 
1924.958368  	0.002062 
1926.887184  	0.002460 
1928.816000  	0.002109 
1930.744816  	0.002222 
1932.673632  	0.001888 
1934.602448  	0.002287 
1936.531264  	0.002590 
1938.460080  	0.003243 
1940.388896  	0.002670 
1942.317712  	0.002338 
1944.246528  	0.002154 
1946.175344  	0.002985 
1948.104160  	0.002817 
1950.032976  	0.003385 
1951.961792  	0.002786 
1953.890608  	0.003019 
1955.819424  	0.002397 
1957.748240  	0.002979 
1959.677056  	0.003223 
1961.605872  	0.003952 
1963.534688  	0.003388 
1965.463504  	0.004001 
1967.392320  	0.003191 
1969.321136  	0.003649 
1971.249952  	0.003697 
1973.178768  	0.004154 
1975.107584  	0.002541 
1977.036400  	0.003165 
1978.965216  	0.004469 
1980.894032  	0.004569 
1982.822848  	0.003869 
1984.751664  	0.004435 
1986.680480  	0.003695 
1988.609296  	0.004235 
1990.538112  	0.003177 
1992.466928  	0.002766 
1994.395744  	0.002236 
1996.324560  	0.002769 
1998.253376  	0.002729 
2000.182192  	0.002367 
2002.111008  	0.001971 
2004.039824  	0.003667 
2005.968640  	0.003383 
2007.897456  	0.004370 
2009.826272  	0.004176 
2011.755088  	0.004268 
2013.683904  	0.003000 
2015.612720  	0.003572 
2017.541536  	0.002893 
2019.470352  	0.002862 
2021.399168  	0.002258 
2023.327984  	0.001934 
2025.256800  	0.002769 
2027.185616  	0.004993 
2029.114432  	0.004701 
2031.043248  	0.004575 
2032.972064  	0.003710 
2034.900880  	0.004089 
2036.829696  	0.003489 
2038.758512  	0.004828 
2040.687328  	0.004273 
2042.616144  	0.004153 
2044.544960  	0.003398 
2046.473776  	0.003592 
2048.402592  	0.003745 
2050.331408  	0.004192 
2052.260224  	0.002841 
2054.189040  	0.002650 
2056.117856  	0.002624 
2058.046672  	0.002724 
2059.975488  	0.002498 
2061.904304  	0.002974 
2063.833120  	0.002361 
2065.761936  	0.001837 
2067.690752  	0.002034 
2069.619568  	0.002810 
2071.548384  	0.002942 
2073.477200  	0.002949 
2075.406016  	0.002901 
2077.334832  	0.003283 
2079.263648  	0.002827 
2081.192464  	0.002791 
2083.121280  	0.002832 
2085.050096  	0.003180 
2086.978912  	0.003217 
2088.907728  	0.003313 
2090.836544  	0.002840 
2092.765360  	0.003091 
2094.694176  	0.003370 
2096.622992  	0.003826 
2098.551808  	0.004034 
2100.480624  	0.004263 
2102.409440  	0.003556 
2104.338256  	0.003185 
2106.267072  	0.003532 
2108.195888  	0.004028 
2110.124704  	0.003355 
2112.053520  	0.003372 
2113.982336  	0.003369 
2115.911152  	0.003723 
2117.839968  	0.003680 
2119.768784  	0.003503 
2121.697600  	0.003141 
2123.626416  	0.003051 
2125.555232  	0.002644 
2127.484048  	0.002747 
2129.412864  	0.002552 
2131.341680  	0.002501 
2133.270496  	0.002295 
2135.199312  	0.003116 
2137.128128  	0.003612 
2139.056944  	0.003852 
2140.985760  	0.003371 
2142.914576  	0.003488 
2144.843392  	0.004116 
2146.772208  	0.004986 
2148.701024  	0.003427 
2150.629840  	0.003753 
2152.558656  	0.004963 
2154.487472  	0.005421 
2156.416288  	0.004783 
2158.345104  	0.006307 
2160.273920  	0.007246 
2162.202736  	0.007419 
2164.131552  	0.006216 
2166.060368  	0.006341 
2167.989184  	0.007117 
2169.918000  	0.007799 
2171.846816  	0.006245 
2173.775632  	0.005848 
2175.704448  	0.006092 
2177.633264  	0.006111 
2179.562080  	0.005486 
2181.490896  	0.005599 
2183.419712  	0.004760 
2185.348528  	0.004972 
2187.277344  	0.005263 
2189.206160  	0.005273 
2191.134976  	0.004659 
2193.063792  	0.004686 
2194.992608  	0.004207 
2196.921424  	0.003783 
2198.850240  	0.004046 
2200.779056  	0.004432 
2202.707872  	0.004048 
2204.636688  	0.004313 
2206.565504  	0.004902 
2208.494320  	0.005104 
2210.423136  	0.004368 
2212.351952  	0.003742 
2214.280768  	0.003209 
2216.209584  	0.003479 
2218.138400  	0.003074 
2220.067216  	0.003094 
2221.996032  	0.003432 
2223.924848  	0.003859 
2225.853664  	0.004238 
2227.782480  	0.004407 
2229.711296  	0.003536 
2231.640112  	0.002844 
2233.568928  	0.002513 
2235.497744  	0.002950 
2237.426560  	0.003262 
2239.355376  	0.003418 
2241.284192  	0.003364 
2243.213008  	0.003507 
2245.141824  	0.003254 
2247.070640  	0.003441 
2248.999456  	0.003331 
2250.928272  	0.003067 
2252.857088  	0.002555 
2254.785904  	0.002474 
2256.714720  	0.002022 
2258.643536  	0.001891 
2260.572352  	0.001929 
2262.501168  	0.002206 
2264.429984  	0.002068 
2266.358800  	0.002317 
2268.287616  	0.002519 
2270.216432  	0.002657 
2272.145248  	0.002578 
2274.074064  	0.002329 
2276.002880  	0.002375 
2277.931696  	0.002852 
2279.860512  	0.002875 
2281.789328  	0.003033 
2283.718144  	0.003112 
2285.646960  	0.003187 
2287.575776  	0.003052 
2289.504592  	0.002904 
2291.433408  	0.002690 
2293.362224  	0.002870 
2295.291040  	0.002980 
2297.219856  	0.003085 
2299.148672  	0.002959 
2301.077488  	0.003171 
2303.006304  	0.003196 
2304.935120  	0.003174 
2306.863936  	0.003139 
2308.792752  	0.003049 
2310.721568  	0.002540 
2312.650384  	0.002197 
2314.579200  	0.002038 
2316.508016  	0.001659 
2318.436832  	0.000912 
2320.365648  	0.000019 
2322.294464  	-0.000986 
2324.223280  	-0.001691 
2326.152096  	-0.002851 
2328.080912  	-0.003698 
2330.009728  	-0.004561 
2331.938544  	-0.005612 
2333.867360  	-0.006255 
2335.796176  	-0.006794 
2337.724992  	-0.007672 
2339.653808  	-0.007741 
2341.582624  	-0.008113 
2343.511440  	-0.008067 
2345.440256  	-0.007269 
2347.369072  	-0.004278 
2349.297888  	-0.001667 
2351.226704  	-0.002626 
2353.155520  	-0.005681 
2355.084336  	-0.008347 
2357.013152  	-0.010650 
2358.941968  	-0.011881 
2360.870784  	-0.012769 
2362.799600  	-0.012311 
2364.728416  	-0.012027 
2366.657232  	-0.010871 
2368.586048  	-0.008676 
2370.514864  	-0.006265 
2372.443680  	-0.004501 
2374.372496  	-0.002850 
2376.301312  	-0.001297 
2378.230128  	0.000060 
2380.158944  	0.001015 
2382.087760  	0.001830 
2384.016576  	0.002082 
2385.945392  	0.002216 
2387.874208  	0.002453 
2389.803024  	0.002426 
2391.731840  	0.002110 
2393.660656  	0.002071 
2395.589472  	0.002202 
2397.518288  	0.002356 
2399.447104  	0.002180 
2401.375920  	0.002082 
2403.304736  	0.002071 
2405.233552  	0.002232 
2407.162368  	0.002175 
2409.091184  	0.002248 
2411.020000  	0.002314 
2412.948816  	0.002318 
2414.877632  	0.002368 
2416.806448  	0.002474 
2418.735264  	0.002352 
2420.664080  	0.002356 
2422.592896  	0.002405 
2424.521712  	0.002414 
2426.450528  	0.002268 
2428.379344  	0.002420 
2430.308160  	0.002678 
2432.236976  	0.002861 
2434.165792  	0.002616 
2436.094608  	0.002462 
2438.023424  	0.002642 
2439.952240  	0.003051 
2441.881056  	0.003125 
2443.809872  	0.002913 
2445.738688  	0.002901 
2447.667504  	0.003079 
2449.596320  	0.003123 
2451.525136  	0.003223 
2453.453952  	0.003169 
2455.382768  	0.003021 
2457.311584  	0.002962 
2459.240400  	0.002931 
2461.169216  	0.003034 
2463.098032  	0.002984 
2465.026848  	0.003029 
2466.955664  	0.003136 
2468.884480  	0.002841 
2470.813296  	0.002827 
2472.742112  	0.003006 
2474.670928  	0.003120 
2476.599744  	0.003102 
2478.528560  	0.003365 
2480.457376  	0.003392 
2482.386192  	0.003191 
2484.315008  	0.003242 
2486.243824  	0.003226 
2488.172640  	0.003169 
2490.101456  	0.003439 
2492.030272  	0.003671 
2493.959088  	0.003682 
2495.887904  	0.003569 
2497.816720  	0.003541 
2499.745536  	0.003632 
2501.674352  	0.003954 
2503.603168  	0.004274 
2505.531984  	0.004102 
2507.460800  	0.003893 
2509.389616  	0.004082 
2511.318432  	0.004122 
2513.247248  	0.004206 
2515.176064  	0.004200 
2517.104880  	0.004111 
2519.033696  	0.003903 
2520.962512  	0.003903 
2522.891328  	0.004098 
2524.820144  	0.004319 
2526.748960  	0.004324 
2528.677776  	0.004530 
2530.606592  	0.004543 
2532.535408  	0.004504 
2534.464224  	0.004343 
2536.393040  	0.004470 
2538.321856  	0.004662 
2540.250672  	0.004767 
2542.179488  	0.004684 
2544.108304  	0.004761 
2546.037120  	0.004905 
2547.965936  	0.004858 
2549.894752  	0.004825 
2551.823568  	0.004899 
2553.752384  	0.005147 
2555.681200  	0.005353 
2557.610016  	0.005279 
2559.538832  	0.005371 
2561.467648  	0.005537 
2563.396464  	0.005655 
2565.325280  	0.005682 
2567.254096  	0.005562 
2569.182912  	0.005566 
2571.111728  	0.005905 
2573.040544  	0.005963 
2574.969360  	0.005974 
2576.898176  	0.006186 
2578.826992  	0.006120 
2580.755808  	0.006011 
2582.684624  	0.006235 
2584.613440  	0.006316 
2586.542256  	0.006249 
2588.471072  	0.006346 
2590.399888  	0.006521 
2592.328704  	0.006507 
2594.257520  	0.006526 
2596.186336  	0.006612 
2598.115152  	0.006765 
2600.043968  	0.006790 
2601.972784  	0.006999 
2603.901600  	0.007047 
2605.830416  	0.007092 
2607.759232  	0.007111 
2609.688048  	0.007203 
2611.616864  	0.007343 
2613.545680  	0.007411 
2615.474496  	0.007457 
2617.403312  	0.007569 
2619.332128  	0.007647 
2621.260944  	0.007730 
2623.189760  	0.007781 
2625.118576  	0.007928 
2627.047392  	0.007974 
2628.976208  	0.008068 
2630.905024  	0.008210 
2632.833840  	0.008321 
2634.762656  	0.008441 
2636.691472  	0.008549 
2638.620288  	0.008669 
2640.549104  	0.008829 
2642.477920  	0.008884 
2644.406736  	0.009047 
2646.335552  	0.009211 
2648.264368  	0.009366 
2650.193184  	0.009423 
2652.122000  	0.009458 
2654.050816  	0.009621 
2655.979632  	0.009778 
2657.908448  	0.009807 
2659.837264  	0.009940 
2661.766080  	0.010088 
2663.694896  	0.010179 
2665.623712  	0.010227 
2667.552528  	0.010354 
2669.481344  	0.010500 
2671.410160  	0.010643 
2673.338976  	0.010694 
2675.267792  	0.010815 
2677.196608  	0.010951 
2679.125424  	0.011107 
2681.054240  	0.011351 
2682.983056  	0.011440 
2684.911872  	0.011311 
2686.840688  	0.011431 
2688.769504  	0.011613 
2690.698320  	0.011679 
2692.627136  	0.011745 
2694.555952  	0.011847 
2696.484768  	0.011929 
2698.413584  	0.012020 
2700.342400  	0.012137 
2702.271216  	0.012340 
2704.200032  	0.012479 
2706.128848  	0.012514 
2708.057664  	0.012485 
2709.986480  	0.012621 
2711.915296  	0.012750 
2713.844112  	0.012863 
2715.772928  	0.013043 
2717.701744  	0.013260 
2719.630560  	0.013539 
2721.559376  	0.013656 
2723.488192  	0.013643 
2725.417008  	0.013814 
2727.345824  	0.014054 
2729.274640  	0.014132 
2731.203456  	0.014217 
2733.132272  	0.014387 
2735.061088  	0.014567 
2736.989904  	0.014758 
2738.918720  	0.014755 
2740.847536  	0.014689 
2742.776352  	0.014715 
2744.705168  	0.014900 
2746.633984  	0.014985 
2748.562800  	0.014904 
2750.491616  	0.014947 
2752.420432  	0.015216 
2754.349248  	0.015163 
2756.278064  	0.015148 
2758.206880  	0.015173 
2760.135696  	0.015145 
2762.064512  	0.015173 
2763.993328  	0.015302 
2765.922144  	0.015263 
2767.850960  	0.015178 
2769.779776  	0.015248 
2771.708592  	0.015371 
2773.637408  	0.015352 
2775.566224  	0.015297 
2777.495040  	0.015290 
2779.423856  	0.015449 
2781.352672  	0.015466 
2783.281488  	0.015385 
2785.210304  	0.015300 
2787.139120  	0.015292 
2789.067936  	0.015380 
2790.996752  	0.015430 
2792.925568  	0.015357 
2794.854384  	0.015335 
2796.783200  	0.015296 
2798.712016  	0.015244 
2800.640832  	0.015209 
2802.569648  	0.015307 
2804.498464  	0.015401 
2806.427280  	0.015359 
2808.356096  	0.015323 
2810.284912  	0.015410 
2812.213728  	0.015429 
2814.142544  	0.015426 
2816.071360  	0.015523 
2818.000176  	0.015434 
2819.928992  	0.015315 
2821.857808  	0.015213 
2823.786624  	0.014924 
2825.715440  	0.014845 
2827.644256  	0.014823 
2829.573072  	0.014748 
2831.501888  	0.014485 
2833.430704  	0.014181 
2835.359520  	0.013921 
2837.288336  	0.013570 
2839.217152  	0.013261 
2841.145968  	0.013039 
2843.074784  	0.012752 
2845.003600  	0.012313 
2846.932416  	0.011975 
2848.861232  	0.011773 
2850.790048  	0.011401 
2852.718864  	0.010753 
2854.647680  	0.010132 
2856.576496  	0.009521 
2858.505312  	0.008902 
2860.434128  	0.008334 
2862.362944  	0.007509 
2864.291760  	0.006684 
2866.220576  	0.006151 
2868.149392  	0.005884 
2870.078208  	0.005662 
2872.007024  	0.005613 
2873.935840  	0.005721 
2875.864656  	0.005709 
2877.793472  	0.005574 
2879.722288  	0.005449 
2881.651104  	0.005134 
2883.579920  	0.004898 
2885.508736  	0.005076 
2887.437552  	0.005413 
2889.366368  	0.005568 
2891.295184  	0.005350 
2893.224000  	0.004995 
2895.152816  	0.005044 
2897.081632  	0.004834 
2899.010448  	0.003084 
2900.939264  	0.001552 
2902.868080  	0.002870 
2904.796896  	0.004331 
2906.725712  	0.004932 
2908.654528  	0.005474 
2910.583344  	0.005877 
2912.512160  	0.006643 
2914.440976  	0.007988 
2916.369792  	0.008906 
2918.298608  	0.009399 
2920.227424  	0.009847 
2922.156240  	0.010469 
2924.085056  	0.011116 
2926.013872  	0.011891 
2927.942688  	0.012888 
2929.871504  	0.013916 
2931.800320  	0.014782 
2933.729136  	0.015444 
2935.657952  	0.015904 
2937.586768  	0.016553 
2939.515584  	0.017302 
2941.444400  	0.017575 
2943.373216  	0.017504 
2945.302032  	0.017781 
2947.230848  	0.018052 
2949.159664  	0.017756 
2951.088480  	0.017194 
2953.017296  	0.016693 
2954.946112  	0.015970 
2956.874928  	0.015209 
2958.803744  	0.014527 
2960.732560  	0.013987 
2962.661376  	0.013270 
2964.590192  	0.012329 
2966.519008  	0.011116 
2968.447824  	0.010043 
2970.376640  	0.009241 
2972.305456  	0.008749 
2974.234272  	0.009013 
2976.163088  	0.009325 
2978.091904  	0.009356 
2980.020720  	0.009436 
2981.949536  	0.009519 
2983.878352  	0.009284 
2985.807168  	0.008425 
2987.735984  	0.007560 
2989.664800  	0.007944 
2991.593616  	0.010948 
2993.522432  	0.012972 
2995.451248  	0.013545 
2997.380064  	0.014341 
2999.308880  	0.015588 
3001.237696  	0.016990 
3003.166512  	0.018520 
3005.095328  	0.019988 
3007.024144  	0.021392 
3008.952960  	0.022878 
3010.881776  	0.024291 
3012.810592  	0.025675 
3014.739408  	0.026986 
3016.668224  	0.028148 
3018.597040  	0.029384 
3020.525856  	0.030641 
3022.454672  	0.031727 
3024.383488  	0.032777 
3026.312304  	0.033809 
3028.241120  	0.034790 
3030.169936  	0.035726 
3032.098752  	0.036571 
3034.027568  	0.037411 
3035.956384  	0.038247 
3037.885200  	0.039090 
3039.814016  	0.039654 
3041.742832  	0.040217 
3043.671648  	0.040697 
3045.600464  	0.041269 
3047.529280  	0.042014 
3049.458096  	0.042664 
3051.386912  	0.043300 
3053.315728  	0.043922 
3055.244544  	0.044478 
3057.173360  	0.045045 
3059.102176  	0.045669 
3061.030992  	0.046421 
3062.959808  	0.047122 
3064.888624  	0.047739 
3066.817440  	0.048473 
3068.746256  	0.049449 
3070.675072  	0.050194 
3072.603888  	0.050767 
3074.532704  	0.051465 
3076.461520  	0.052184 
3078.390336  	0.052874 
3080.319152  	0.053500 
3082.247968  	0.054254 
3084.176784  	0.055042 
3086.105600  	0.055883 
3088.034416  	0.056657 
3089.963232  	0.057323 
3091.892048  	0.057905 
3093.820864  	0.058505 
3095.749680  	0.059312 
3097.678496  	0.060246 
3099.607312  	0.061155 
3101.536128  	0.062035 
3103.464944  	0.062877 
3105.393760  	0.063567 
3107.322576  	0.064306 
3109.251392  	0.064995 
3111.180208  	0.065593 
3113.109024  	0.066288 
3115.037840  	0.066997 
3116.966656  	0.067674 
3118.895472  	0.068262 
3120.824288  	0.068763 
3122.753104  	0.069315 
3124.681920  	0.069860 
3126.610736  	0.070368 
3128.539552  	0.071085 
3130.468368  	0.071958 
3132.397184  	0.072493 
3134.326000  	0.073002 
3136.254816  	0.073442 
3138.183632  	0.074013 
3140.112448  	0.074628 
3142.041264  	0.075167 
3143.970080  	0.075668 
3145.898896  	0.076111 
3147.827712  	0.076681 
3149.756528  	0.077206 
3151.685344  	0.077587 
3153.614160  	0.078291 
3155.542976  	0.079023 
3157.471792  	0.079598 
3159.400608  	0.080243 
3161.329424  	0.080764 
3163.258240  	0.081098 
3165.187056  	0.081697 
3167.115872  	0.082209 
3169.044688  	0.082652 
3170.973504  	0.083131 
3172.902320  	0.083713 
3174.831136  	0.084206 
3176.759952  	0.084517 
3178.688768  	0.084766 
3180.617584  	0.085157 
3182.546400  	0.085546 
3184.475216  	0.085853 
3186.404032  	0.085811 
3188.332848  	0.085951 
3190.261664  	0.086249 
3192.190480  	0.086384 
3194.119296  	0.086295 
3196.048112  	0.086456 
3197.976928  	0.086449 
3199.905744  	0.086352 
3201.834560  	0.086323 
3203.763376  	0.086309 
3205.692192  	0.086211 
3207.621008  	0.085958 
3209.549824  	0.085842 
3211.478640  	0.085754 
3213.407456  	0.085722 
3215.336272  	0.085688 
3217.265088  	0.085694 
3219.193904  	0.085392 
3221.122720  	0.085035 
3223.051536  	0.085008 
3224.980352  	0.084952 
3226.909168  	0.084864 
3228.837984  	0.084703 
3230.766800  	0.084504 
3232.695616  	0.084495 
3234.624432  	0.084286 
3236.553248  	0.084109 
3238.482064  	0.084233 
3240.410880  	0.084273 
3242.339696  	0.084319 
3244.268512  	0.084074 
3246.197328  	0.084086 
3248.126144  	0.084386 
3250.054960  	0.084661 
3251.983776  	0.084880 
3253.912592  	0.085076 
3255.841408  	0.085230 
3257.770224  	0.085296 
3259.699040  	0.085463 
3261.627856  	0.085800 
3263.556672  	0.086060 
3265.485488  	0.086138 
3267.414304  	0.086334 
3269.343120  	0.086710 
3271.271936  	0.086744 
3273.200752  	0.086920 
3275.129568  	0.086966 
3277.058384  	0.087269 
3278.987200  	0.087664 
3280.916016  	0.087908 
3282.844832  	0.088034 
3284.773648  	0.088216 
3286.702464  	0.088330 
3288.631280  	0.088524 
3290.560096  	0.089009 
3292.488912  	0.089392 
3294.417728  	0.089631 
3296.346544  	0.089903 
3298.275360  	0.090035 
3300.204176  	0.090268 
3302.132992  	0.090641 
3304.061808  	0.091078 
3305.990624  	0.091686 
3307.919440  	0.092015 
3309.848256  	0.092106 
3311.777072  	0.092459 
3313.705888  	0.092752 
3315.634704  	0.093068 
3317.563520  	0.093346 
3319.492336  	0.093702 
3321.421152  	0.093920 
3323.349968  	0.094019 
3325.278784  	0.094168 
3327.207600  	0.094362 
3329.136416  	0.094231 
3331.065232  	0.094312 
3332.994048  	0.094519 
3334.922864  	0.094572 
3336.851680  	0.094534 
3338.780496  	0.094438 
3340.709312  	0.094284 
3342.638128  	0.094140 
3344.566944  	0.093802 
3346.495760  	0.093591 
3348.424576  	0.093407 
3350.353392  	0.093220 
3352.282208  	0.092877 
3354.211024  	0.092548 
3356.139840  	0.092272 
3358.068656  	0.092033 
3359.997472  	0.091463 
3361.926288  	0.091110 
3363.855104  	0.090948 
3365.783920  	0.090640 
3367.712736  	0.090158 
3369.641552  	0.089749 
3371.570368  	0.089295 
3373.499184  	0.088927 
3375.428000  	0.088591 
3377.356816  	0.088214 
3379.285632  	0.088018 
3381.214448  	0.087735 
3383.143264  	0.087185 
3385.072080  	0.086574 
3387.000896  	0.086098 
3388.929712  	0.085936 
3390.858528  	0.085587 
3392.787344  	0.085174 
3394.716160  	0.084735 
3396.644976  	0.084325 
3398.573792  	0.083932 
3400.502608  	0.083506 
3402.431424  	0.083017 
3404.360240  	0.082512 
3406.289056  	0.081986 
3408.217872  	0.081626 
3410.146688  	0.081233 
3412.075504  	0.080929 
3414.004320  	0.080395 
3415.933136  	0.079994 
3417.861952  	0.079454 
3419.790768  	0.078870 
3421.719584  	0.078383 
3423.648400  	0.078080 
3425.577216  	0.077413 
3427.506032  	0.076807 
3429.434848  	0.076502 
3431.363664  	0.076037 
3433.292480  	0.075416 
3435.221296  	0.074692 
3437.150112  	0.074163 
3439.078928  	0.073756 
3441.007744  	0.073218 
3442.936560  	0.072743 
3444.865376  	0.072344 
3446.794192  	0.071308 
3448.723008  	0.070264 
3450.651824  	0.069907 
3452.580640  	0.069390 
3454.509456  	0.068950 
3456.438272  	0.068342 
3458.367088  	0.067610 
3460.295904  	0.066913 
3462.224720  	0.066240 
3464.153536  	0.065628 
3466.082352  	0.064917 
3468.011168  	0.063948 
3469.939984  	0.063261 
3471.868800  	0.062609 
3473.797616  	0.061863 
3475.726432  	0.061121 
3477.655248  	0.060459 
3479.584064  	0.059940 
3481.512880  	0.059107 
3483.441696  	0.057993 
3485.370512  	0.057462 
3487.299328  	0.056470 
3489.228144  	0.055729 
3491.156960  	0.055202 
3493.085776  	0.054542 
3495.014592  	0.053728 
3496.943408  	0.052878 
3498.872224  	0.052180 
3500.801040  	0.051822 
3502.729856  	0.051050 
3504.658672  	0.050037 
3506.587488  	0.049780 
3508.516304  	0.049382 
3510.445120  	0.048217 
3512.373936  	0.047571 
3514.302752  	0.047128 
3516.231568  	0.046751 
3518.160384  	0.046247 
3520.089200  	0.045686 
3522.018016  	0.045160 
3523.946832  	0.044569 
3525.875648  	0.044029 
3527.804464  	0.043042 
3529.733280  	0.042222 
3531.662096  	0.041719 
3533.590912  	0.041341 
3535.519728  	0.041055 
3537.448544  	0.040527 
3539.377360  	0.039905 
3541.306176  	0.039320 
3543.234992  	0.039067 
3545.163808  	0.038655 
3547.092624  	0.037588 
3549.021440  	0.036775 
3550.950256  	0.036623 
3552.879072  	0.035637 
3554.807888  	0.034856 
3556.736704  	0.034551 
3558.665520  	0.034164 
3560.594336  	0.033682 
3562.523152  	0.033348 
3564.451968  	0.033341 
3566.380784  	0.032221 
3568.309600  	0.029518 
3570.238416  	0.029481 
3572.167232  	0.029784 
3574.096048  	0.029046 
3576.024864  	0.028180 
3577.953680  	0.027706 
3579.882496  	0.026935 
3581.811312  	0.026442 
3583.740128  	0.026260 
3585.668944  	0.026147 
3587.597760  	0.023693 
3589.526576  	0.022203 
3591.455392  	0.022897 
3593.384208  	0.022704 
3595.313024  	0.021374 
3597.241840  	0.020321 
3599.170656  	0.019551 
3601.099472  	0.018438 
3603.028288  	0.017997 
3604.957104  	0.018375 
3606.885920  	0.017862 
3608.814736  	0.015948 
3610.743552  	0.015614 
3612.672368  	0.014770 
3614.601184  	0.012885 
3616.530000  	0.013430 
3618.458816  	0.011843 
3620.387632  	0.009142 
3622.316448  	0.009558 
3624.245264  	0.010268 
3626.174080  	0.010854 
3628.102896  	0.008761 
3630.031712  	0.002898 
3631.960528  	0.004833 
3633.889344  	0.005035 
3635.818160  	0.004077 
3637.746976  	0.003551 
3639.675792  	0.003335 
3641.604608  	0.003205 
3643.533424  	0.002770 
3645.462240  	0.003098 
3647.391056  	0.001004 
3649.319872  	-0.004306 
3651.248688  	-0.007230 
3653.177504  	-0.004037 
3655.106320  	-0.003169 
3657.035136  	-0.006661 
3658.963952  	-0.006545 
3660.892768  	-0.006288 
3662.821584  	-0.006635 
3664.750400  	-0.006438 
3666.679216  	-0.005545 
3668.608032  	-0.006524 
3670.536848  	-0.010874 
3672.465664  	-0.008723 
3674.394480  	-0.007781 
3676.323296  	-0.014827 
3678.252112  	-0.011723 
3680.180928  	-0.009655 
3682.109744  	-0.009143 
3684.038560  	-0.008777 
3685.967376  	-0.007555 
3687.896192  	-0.008831 
3689.825008  	-0.012726 
3691.753824  	-0.012790 
3693.682640  	-0.010703 
3695.611456  	-0.009108 
3697.540272  	-0.008209 
3699.469088  	-0.006959 
3701.397904  	-0.007826 
3703.326720  	-0.008542 
3705.255536  	-0.006803 
3707.184352  	-0.005445 
3709.113168  	-0.005756 
3711.041984  	-0.008370 
3712.970800  	-0.009717 
3714.899616  	-0.007200 
3716.828432  	-0.005226 
3718.757248  	-0.005115 
3720.686064  	-0.005459 
3722.614880  	-0.006597 
3724.543696  	-0.006581 
3726.472512  	-0.006881 
3728.401328  	-0.006305 
3730.330144  	-0.004861 
3732.258960  	-0.005993 
3734.187776  	-0.006681 
3736.116592  	-0.009451 
3738.045408  	-0.008990 
3739.974224  	-0.006108 
3741.903040  	-0.003489 
3743.831856  	-0.005050 
3745.760672  	-0.009993 
3747.689488  	-0.005762 
3749.618304  	-0.006697 
3751.547120  	-0.010706 
3753.475936  	-0.010443 
3755.404752  	-0.006729 
3757.333568  	-0.005580 
3759.262384  	-0.006908 
3761.191200  	-0.007603 
3763.120016  	-0.005166 
3765.048832  	-0.005433 
3766.977648  	-0.005797 
3768.906464  	-0.005744 
3770.835280  	-0.007663 
3772.764096  	-0.006410 
3774.692912  	-0.005210 
3776.621728  	-0.004592 
3778.550544  	-0.005426 
3780.479360  	-0.007478 
3782.408176  	-0.005887 
3784.336992  	-0.005680 
3786.265808  	-0.006185 
3788.194624  	-0.005675 
3790.123440  	-0.005525 
3792.052256  	-0.005360 
3793.981072  	-0.004610 
3795.909888  	-0.005539 
3797.838704  	-0.005894 
3799.767520  	-0.004336 
3801.696336  	-0.009024 
3803.625152  	-0.008911 
3805.553968  	-0.005854 
3807.482784  	-0.008575 
3809.411600  	-0.007503 
3811.340416  	-0.005486 
3813.269232  	-0.004009 
3815.198048  	-0.005342 
3817.126864  	-0.008389 
3819.055680  	-0.005631 
3820.984496  	-0.008380 
3822.913312  	-0.009723 
3824.842128  	-0.006171 
3826.770944  	-0.006473 
3828.699760  	-0.005947 
3830.628576  	-0.005245 
3832.557392  	-0.006084 
3834.486208  	-0.005495 
3836.415024  	-0.005629 
3838.343840  	-0.007776 
3840.272656  	-0.008669 
3842.201472  	-0.007355 
3844.130288  	-0.007300 
3846.059104  	-0.006358 
3847.987920  	-0.004662 
3849.916736  	-0.003258 
3851.845552  	-0.003324 
3853.774368  	-0.011541 
3855.703184  	-0.011572 
3857.632000  	-0.007539 
3859.560816  	-0.005121 
3861.489632  	-0.004598 
3863.418448  	-0.005652 
3865.347264  	-0.007325 
3867.276080  	-0.005353 
3869.204896  	-0.005730 
3871.133712  	-0.008463 
3873.062528  	-0.006533 
3874.991344  	-0.007613 
3876.920160  	-0.005635 
3878.848976  	-0.003959 
3880.777792  	-0.006102 
3882.706608  	-0.005534 
3884.635424  	-0.004733 
3886.564240  	-0.007610 
3888.493056  	-0.005589 
3890.421872  	-0.005050 
3892.350688  	-0.007447 
3894.279504  	-0.006512 
3896.208320  	-0.004387 
3898.137136  	-0.003619 
3900.065952  	-0.004806 
3901.994768  	-0.005257 
3903.923584  	-0.006649 
3905.852400  	-0.007792 
3907.781216  	-0.006498 
3909.710032  	-0.005530 
3911.638848  	-0.005290 
3913.567664  	-0.004849 
3915.496480  	-0.004387 
3917.425296  	-0.005475 
3919.354112  	-0.006011 
3921.282928  	-0.005547 
3923.211744  	-0.004760 
3925.140560  	-0.005394 
3927.069376  	-0.005265 
3928.998192  	-0.004651 
3930.927008  	-0.004848 
3932.855824  	-0.005632 
3934.784640  	-0.005724 
3936.713456  	-0.005181 
3938.642272  	-0.004927 
3940.571088  	-0.004494 
3942.499904  	-0.005024 
3944.428720  	-0.005468 
3946.357536  	-0.004656 
3948.286352  	-0.004803 
3950.215168  	-0.005398 
3952.143984  	-0.005372 
3954.072800  	-0.005045 
3956.001616  	-0.004863 
3957.930432  	-0.005038 
3959.859248  	-0.005077 
3961.788064  	-0.005188 
3963.716880  	-0.005353 
3965.645696  	-0.005289 
3967.574512  	-0.005155 
3969.503328  	-0.005001 
3971.432144  	-0.005033 
3973.360960  	-0.005171 
3975.289776  	-0.005396 
3977.218592  	-0.005416 
3979.147408  	-0.005246 
3981.076224  	-0.005127 
3983.005040  	-0.005122 
3984.933856  	-0.005187 
3986.862672  	-0.005284 
3988.791488  	-0.005112 
3990.720304  	-0.004983 
3992.649120  	-0.005048 
3994.577936  	-0.005271 
3996.506752  	-0.005302 
3998.435568  	-0.005078 
4000.364384  	-0.004994 