##TITLE=No Description
##DATA TYPE=INFRARED SPECTRUM
##XUNITS=1/CM
##YUNITS=Abs
399.264912  	0.309918 
401.193728  	0.295870 
403.122544  	0.300299 
405.051360  	0.301298 
406.980176  	0.303038 
408.908992  	0.300286 
410.837808  	0.300309 
412.766624  	0.301648 
414.695440  	0.306258 
416.624256  	0.307772 
418.553072  	0.306811 
420.481888  	0.298989 
422.410704  	0.300221 
424.339520  	0.299274 
426.268336  	0.296735 
428.197152  	0.292888 
430.125968  	0.297072 
432.054784  	0.298784 
433.983600  	0.296691 
435.912416  	0.294729 
437.841232  	0.292679 
439.770048  	0.291048 
441.698864  	0.289201 
443.627680  	0.287182 
445.556496  	0.288215 
447.485312  	0.288006 
449.414128  	0.291519 
451.342944  	0.293692 
453.271760  	0.292406 
455.200576  	0.291415 
457.129392  	0.298502 
459.058208  	0.302119 
460.987024  	0.302677 
462.915840  	0.299881 
464.844656  	0.301263 
466.773472  	0.303652 
468.702288  	0.305509 
470.631104  	0.305863 
472.559920  	0.308134 
474.488736  	0.310208 
476.417552  	0.313570 
478.346368  	0.314976 
480.275184  	0.318406 
482.204000  	0.317176 
484.132816  	0.319833 
486.061632  	0.322360 
487.990448  	0.323049 
489.919264  	0.324842 
491.848080  	0.326863 
493.776896  	0.327527 
495.705712  	0.327952 
497.634528  	0.327722 
499.563344  	0.329008 
501.492160  	0.328899 
503.420976  	0.330218 
505.349792  	0.329410 
507.278608  	0.329531 
509.207424  	0.331177 
511.136240  	0.335107 
513.065056  	0.337743 
514.993872  	0.342808 
516.922688  	0.346415 
518.851504  	0.350242 
520.780320  	0.351942 
522.709136  	0.355013 
524.637952  	0.356373 
526.566768  	0.358258 
528.495584  	0.358402 
530.424400  	0.359050 
532.353216  	0.358498 
534.282032  	0.356123 
536.210848  	0.352893 
538.139664  	0.350219 
540.068480  	0.346545 
541.997296  	0.342960 
543.926112  	0.339820 
545.854928  	0.337841 
547.783744  	0.336053 
549.712560  	0.333429 
551.641376  	0.330114 
553.570192  	0.327366 
555.499008  	0.324739 
557.427824  	0.322607 
559.356640  	0.318468 
561.285456  	0.316122 
563.214272  	0.314368 
565.143088  	0.312140 
567.071904  	0.309153 
569.000720  	0.306684 
570.929536  	0.303839 
572.858352  	0.301558 
574.787168  	0.299954 
576.715984  	0.298632 
578.644800  	0.295358 
580.573616  	0.292183 
582.502432  	0.288405 
584.431248  	0.285134 
586.360064  	0.282217 
588.288880  	0.280436 
590.217696  	0.278711 
592.146512  	0.277015 
594.075328  	0.274972 
596.004144  	0.274316 
597.932960  	0.273489 
599.861776  	0.271779 
601.790592  	0.270470 
603.719408  	0.270639 
605.648224  	0.269918 
607.577040  	0.269474 
609.505856  	0.269278 
611.434672  	0.268507 
613.363488  	0.267700 
615.292304  	0.267534 
617.221120  	0.266950 
619.149936  	0.266339 
621.078752  	0.265577 
623.007568  	0.265042 
624.936384  	0.263885 
626.865200  	0.262951 
628.794016  	0.262757 
630.722832  	0.263781 
632.651648  	0.264905 
634.580464  	0.265604 
636.509280  	0.266723 
638.438096  	0.268723 
640.366912  	0.269739 
642.295728  	0.269094 
644.224544  	0.267702 
646.153360  	0.266482 
648.082176  	0.263742 
650.010992  	0.260951 
651.939808  	0.257772 
653.868624  	0.254677 
655.797440  	0.251462 
657.726256  	0.248301 
659.655072  	0.244708 
661.583888  	0.240945 
663.512704  	0.237981 
665.441520  	0.235200 
667.370336  	0.229279 
669.299152  	0.223979 
671.227968  	0.223481 
673.156784  	0.221524 
675.085600  	0.219013 
677.014416  	0.216743 
678.943232  	0.215225 
680.872048  	0.214127 
682.800864  	0.212970 
684.729680  	0.211849 
686.658496  	0.211431 
688.587312  	0.211011 
690.516128  	0.209741 
692.444944  	0.208886 
694.373760  	0.208556 
696.302576  	0.207579 
698.231392  	0.205740 
700.160208  	0.204083 
702.089024  	0.202527 
704.017840  	0.200683 
705.946656  	0.198654 
707.875472  	0.196717 
709.804288  	0.195282 
711.733104  	0.193954 
713.661920  	0.192386 
715.590736  	0.191479 
717.519552  	0.191917 
719.448368  	0.192473 
721.377184  	0.193485 
723.306000  	0.195603 
725.234816  	0.197057 
727.163632  	0.197617 
729.092448  	0.196464 
731.021264  	0.193925 
732.950080  	0.191181 
734.878896  	0.188461 
736.807712  	0.185567 
738.736528  	0.183395 
740.665344  	0.181736 
742.594160  	0.180229 
744.522976  	0.179006 
746.451792  	0.178115 
748.380608  	0.177248 
750.309424  	0.176514 
752.238240  	0.176080 
754.167056  	0.175445 
756.095872  	0.174781 
758.024688  	0.174566 
759.953504  	0.174648 
761.882320  	0.176014 
763.811136  	0.177754 
765.739952  	0.177761 
767.668768  	0.176248 
769.597584  	0.174832 
771.526400  	0.174848 
773.455216  	0.177072 
775.384032  	0.181297 
777.312848  	0.187352 
779.241664  	0.193315 
781.170480  	0.195955 
783.099296  	0.193847 
785.028112  	0.189023 
786.956928  	0.183656 
788.885744  	0.179071 
790.814560  	0.175371 
792.743376  	0.172935 
794.672192  	0.172598 
796.601008  	0.172647 
798.529824  	0.169983 
800.458640  	0.165632 
802.387456  	0.162464 
804.316272  	0.160821 
806.245088  	0.160363 
808.173904  	0.160443 
810.102720  	0.160383 
812.031536  	0.160715 
813.960352  	0.161799 
815.889168  	0.162864 
817.817984  	0.163793 
819.746800  	0.164479 
821.675616  	0.165227 
823.604432  	0.165861 
825.533248  	0.166209 
827.462064  	0.166202 
829.390880  	0.165542 
831.319696  	0.164778 
833.248512  	0.163687 
835.177328  	0.161860 
837.106144  	0.159472 
839.034960  	0.156503 
840.963776  	0.153303 
842.892592  	0.150155 
844.821408  	0.147063 
846.750224  	0.144094 
848.679040  	0.141434 
850.607856  	0.139305 
852.536672  	0.137745 
854.465488  	0.136251 
856.394304  	0.135261 
858.323120  	0.134164 
860.251936  	0.132456 
862.180752  	0.130470 
864.109568  	0.128075 
866.038384  	0.125870 
867.967200  	0.123980 
869.896016  	0.122142 
871.824832  	0.121113 
873.753648  	0.121072 
875.682464  	0.121934 
877.611280  	0.122829 
879.540096  	0.123797 
881.468912  	0.125680 
883.397728  	0.127007 
885.326544  	0.128132 
887.255360  	0.128763 
889.184176  	0.127946 
891.112992  	0.125934 
893.041808  	0.124284 
894.970624  	0.122241 
896.899440  	0.118917 
898.828256  	0.115072 
900.757072  	0.111500 
902.685888  	0.108732 
904.614704  	0.106994 
906.543520  	0.107020 
908.472336  	0.108806 
910.401152  	0.111857 
912.329968  	0.115120 
914.258784  	0.118621 
916.187600  	0.122219 
918.116416  	0.125174 
920.045232  	0.127376 
921.974048  	0.128544 
923.902864  	0.128887 
925.831680  	0.128790 
927.760496  	0.128961 
929.689312  	0.129486 
931.618128  	0.130367 
933.546944  	0.131355 
935.475760  	0.132176 
937.404576  	0.132612 
939.333392  	0.132760 
941.262208  	0.133340 
943.191024  	0.135108 
945.119840  	0.139196 
947.048656  	0.145575 
948.977472  	0.153768 
950.906288  	0.163350 
952.835104  	0.173873 
954.763920  	0.184885 
956.692736  	0.195349 
958.621552  	0.204571 
960.550368  	0.211053 
962.479184  	0.214273 
964.408000  	0.213721 
966.336816  	0.209461 
968.265632  	0.201632 
970.194448  	0.191276 
972.123264  	0.179018 
974.052080  	0.165889 
975.980896  	0.152853 
977.909712  	0.140506 
979.838528  	0.129701 
981.767344  	0.120757 
983.696160  	0.113873 
985.624976  	0.109633 
987.553792  	0.108236 
989.482608  	0.109584 
991.411424  	0.113313 
993.340240  	0.118714 
995.269056  	0.125302 
997.197872  	0.132773 
999.126688  	0.140241 
1001.055504  	0.147457 
1002.984320  	0.154623 
1004.913136  	0.161766 
1006.841952  	0.168277 
1008.770768  	0.173566 
1010.699584  	0.177314 
1012.628400  	0.179390 
1014.557216  	0.180034 
1016.486032  	0.179983 
1018.414848  	0.179400 
1020.343664  	0.178627 
1022.272480  	0.177888 
1024.201296  	0.176482 
1026.130112  	0.172867 
1028.058928  	0.171383 
1029.987744  	0.174281 
1031.916560  	0.176006 
1033.845376  	0.176902 
1035.774192  	0.177971 
1037.703008  	0.180404 
1039.631824  	0.186279 
1041.560640  	0.194232 
1043.489456  	0.204978 
1045.418272  	0.218248 
1047.347088  	0.233382 
1049.275904  	0.247858 
1051.204720  	0.259846 
1053.133536  	0.267659 
1055.062352  	0.271503 
1056.991168  	0.271874 
1058.919984  	0.272895 
1060.848800  	0.273485 
1062.777616  	0.270562 
1064.706432  	0.263728 
1066.635248  	0.257675 
1068.564064  	0.254870 
1070.492880  	0.249497 
1072.421696  	0.242024 
1074.350512  	0.236622 
1076.279328  	0.234204 
1078.208144  	0.235361 
1080.136960  	0.238491 
1082.065776  	0.242691 
1083.994592  	0.245301 
1085.923408  	0.245836 
1087.852224  	0.243886 
1089.781040  	0.240345 
1091.709856  	0.235334 
1093.638672  	0.228074 
1095.567488  	0.217929 
1097.496304  	0.206519 
1099.425120  	0.194741 
1101.353936  	0.182669 
1103.282752  	0.170636 
1105.211568  	0.159262 
1107.140384  	0.148398 
1109.069200  	0.138177 
1110.998016  	0.128709 
1112.926832  	0.119937 
1114.855648  	0.111732 
1116.784464  	0.104060 
1118.713280  	0.096745 
1120.642096  	0.089874 
1122.570912  	0.083503 
1124.499728  	0.077398 
1126.428544  	0.071874 
1128.357360  	0.066964 
1130.286176  	0.062894 
1132.214992  	0.059147 
1134.143808  	0.056071 
1136.072624  	0.053467 
1138.001440  	0.051125 
1139.930256  	0.048589 
1141.859072  	0.046067 
1143.787888  	0.043457 
1145.716704  	0.041303 
1147.645520  	0.039048 
1149.574336  	0.037058 
1151.503152  	0.035661 
1153.431968  	0.035270 
1155.360784  	0.035405 
1157.289600  	0.036224 
1159.218416  	0.037712 
1161.147232  	0.039782 
1163.076048  	0.042032 
1165.004864  	0.044638 
1166.933680  	0.047038 
1168.862496  	0.049700 
1170.791312  	0.052360 
1172.720128  	0.055469 
1174.648944  	0.058497 
1176.577760  	0.061534 
1178.506576  	0.064304 
1180.435392  	0.067196 
1182.364208  	0.070141 
1184.293024  	0.073497 
1186.221840  	0.076935 
1188.150656  	0.081026 
1190.079472  	0.085801 
1192.008288  	0.091565 
1193.937104  	0.098349 
1195.865920  	0.106118 
1197.794736  	0.114681 
1199.723552  	0.123950 
1201.652368  	0.133554 
1203.581184  	0.143053 
1205.510000  	0.152167 
1207.438816  	0.161071 
1209.367632  	0.169364 
1211.296448  	0.176282 
1213.225264  	0.182126 
1215.154080  	0.186393 
1217.082896  	0.189537 
1219.011712  	0.191567 
1220.940528  	0.192924 
1222.869344  	0.193312 
1224.798160  	0.193132 
1226.726976  	0.192285 
1228.655792  	0.190804 
1230.584608  	0.189046 
1232.513424  	0.186790 
1234.442240  	0.183764 
1236.371056  	0.180007 
1238.299872  	0.175120 
1240.228688  	0.168061 
1242.157504  	0.160975 
1244.086320  	0.155019 
1246.015136  	0.147565 
1247.943952  	0.139445 
1249.872768  	0.131389 
1251.801584  	0.124421 
1253.730400  	0.117474 
1255.659216  	0.110449 
1257.588032  	0.103927 
1259.516848  	0.097953 
1261.445664  	0.092367 
1263.374480  	0.087309 
1265.303296  	0.083003 
1267.232112  	0.079616 
1269.160928  	0.077082 
1271.089744  	0.075226 
1273.018560  	0.074376 
1274.947376  	0.074247 
1276.876192  	0.074448 
1278.805008  	0.074212 
1280.733824  	0.073039 
1282.662640  	0.070967 
1284.591456  	0.068448 
1286.520272  	0.066163 
1288.449088  	0.064623 
1290.377904  	0.063853 
1292.306720  	0.063679 
1294.235536  	0.063367 
1296.164352  	0.062087 
1298.093168  	0.059581 
1300.021984  	0.056536 
1301.950800  	0.053494 
1303.879616  	0.050655 
1305.808432  	0.047605 
1307.737248  	0.044638 
1309.666064  	0.041856 
1311.594880  	0.039665 
1313.523696  	0.037941 
1315.452512  	0.036945 
1317.381328  	0.036457 
1319.310144  	0.036410 
1321.238960  	0.036682 
1323.167776  	0.037517 
1325.096592  	0.038455 
1327.025408  	0.039129 
1328.954224  	0.039137 
1330.883040  	0.038742 
1332.811856  	0.038093 
1334.740672  	0.037517 
1336.669488  	0.037030 
1338.598304  	0.036617 
1340.527120  	0.035457 
1342.455936  	0.034530 
1344.384752  	0.034233 
1346.313568  	0.034415 
1348.242384  	0.035043 
1350.171200  	0.036296 
1352.100016  	0.037865 
1354.028832  	0.039845 
1355.957648  	0.041787 
1357.886464  	0.043806 
1359.815280  	0.045906 
1361.744096  	0.047831 
1363.672912  	0.049153 
1365.601728  	0.050568 
1367.530544  	0.051685 
1369.459360  	0.051842 
1371.388176  	0.051484 
1373.316992  	0.050053 
1375.245808  	0.046989 
1377.174624  	0.044487 
1379.103440  	0.041575 
1381.032256  	0.038706 
1382.961072  	0.036588 
1384.889888  	0.035705 
1386.818704  	0.034696 
1388.747520  	0.033010 
1390.676336  	0.031015 
1392.605152  	0.027863 
1394.533968  	0.025740 
1396.462784  	0.028445 
1398.391600  	0.029733 
1400.320416  	0.029363 
1402.249232  	0.029809 
1404.178048  	0.030341 
1406.106864  	0.031136 
1408.035680  	0.033229 
1409.964496  	0.035698 
1411.893312  	0.038543 
1413.822128  	0.041508 
1415.750944  	0.044805 
1417.679760  	0.046942 
1419.608576  	0.047013 
1421.537392  	0.047557 
1423.466208  	0.047469 
1425.395024  	0.045838 
1427.323840  	0.044695 
1429.252656  	0.042401 
1431.181472  	0.040719 
1433.110288  	0.040570 
1435.039104  	0.041115 
1436.967920  	0.040365 
1438.896736  	0.041156 
1440.825552  	0.042209 
1442.754368  	0.042685 
1444.683184  	0.042798 
1446.612000  	0.042738 
1448.540816  	0.041674 
1450.469632  	0.042008 
1452.398448  	0.042797 
1454.327264  	0.043860 
1456.256080  	0.043431 
1458.184896  	0.041377 
1460.113712  	0.042846 
1462.042528  	0.044582 
1463.971344  	0.044740 
1465.900160  	0.045501 
1467.828976  	0.048329 
1469.757792  	0.051780 
1471.686608  	0.054985 
1473.615424  	0.060484 
1475.544240  	0.066570 
1477.473056  	0.072012 
1479.401872  	0.075831 
1481.330688  	0.078590 
1483.259504  	0.080173 
1485.188320  	0.081161 
1487.117136  	0.080577 
1489.045952  	0.079044 
1490.974768  	0.075716 
1492.903584  	0.073872 
1494.832400  	0.070884 
1496.761216  	0.064604 
1498.690032  	0.058901 
1500.618848  	0.055088 
1502.547664  	0.051887 
1504.476480  	0.048772 
1506.405296  	0.042318 
1508.334112  	0.038296 
1510.262928  	0.038594 
1512.191744  	0.037425 
1514.120560  	0.036688 
1516.049376  	0.035973 
1517.978192  	0.035433 
1519.907008  	0.037137 
1521.835824  	0.037835 
1523.764640  	0.041559 
1525.693456  	0.045139 
1527.622272  	0.047275 
1529.551088  	0.048433 
1531.479904  	0.048485 
1533.408720  	0.045033 
1535.337536  	0.042330 
1537.266352  	0.041280 
1539.195168  	0.035307 
1541.123984  	0.028420 
1543.052800  	0.029233 
1544.981616  	0.028896 
1546.910432  	0.028642 
1548.839248  	0.028902 
1550.768064  	0.028899 
1552.696880  	0.029361 
1554.625696  	0.030170 
1556.554512  	0.031186 
1558.483328  	0.030247 
1560.412144  	0.033339 
1562.340960  	0.040013 
1564.269776  	0.044235 
1566.198592  	0.049662 
1568.127408  	0.054100 
1570.056224  	0.059616 
1571.985040  	0.066404 
1573.913856  	0.071282 
1575.842672  	0.072801 
1577.771488  	0.075162 
1579.700304  	0.076669 
1581.629120  	0.076424 
1583.557936  	0.075868 
1585.486752  	0.076804 
1587.415568  	0.079195 
1589.344384  	0.083633 
1591.273200  	0.089490 
1593.202016  	0.096654 
1595.130832  	0.103973 
1597.059648  	0.111629 
1598.988464  	0.117933 
1600.917280  	0.123277 
1602.846096  	0.126576 
1604.774912  	0.128620 
1606.703728  	0.128438 
1608.632544  	0.127410 
1610.561360  	0.125384 
1612.490176  	0.124140 
1614.418992  	0.122440 
1616.347808  	0.120424 
1618.276624  	0.121877 
1620.205440  	0.126246 
1622.134256  	0.129371 
1624.063072  	0.135645 
1625.991888  	0.142749 
1627.920704  	0.150687 
1629.849520  	0.159990 
1631.778336  	0.168894 
1633.707152  	0.175180 
1635.635968  	0.182562 
1637.564784  	0.191929 
1639.493600  	0.198842 
1641.422416  	0.203384 
1643.351232  	0.206705 
1645.280048  	0.206818 
1647.208864  	0.205930 
1649.137680  	0.206780 
1651.066496  	0.206666 
1652.995312  	0.199851 
1654.924128  	0.198101 
1656.852944  	0.197834 
1658.781760  	0.195436 
1660.710576  	0.191610 
1662.639392  	0.186502 
1664.568208  	0.182673 
1666.497024  	0.180135 
1668.425840  	0.174808 
1670.354656  	0.168570 
1672.283472  	0.165778 
1674.212288  	0.162982 
1676.141104  	0.158806 
1678.069920  	0.158039 
1679.998736  	0.156929 
1681.927552  	0.155555 
1683.856368  	0.151294 
1685.785184  	0.150529 
1687.714000  	0.151758 
1689.642816  	0.150933 
1691.571632  	0.149596 
1693.500448  	0.148464 
1695.429264  	0.144240 
1697.358080  	0.140639 
1699.286896  	0.137866 
1701.215712  	0.131961 
1703.144528  	0.130783 
1705.073344  	0.126481 
1707.002160  	0.120600 
1708.930976  	0.116171 
1710.859792  	0.110336 
1712.788608  	0.103914 
1714.717424  	0.096051 
1716.646240  	0.085962 
1718.575056  	0.073935 
1720.503872  	0.067371 
1722.432688  	0.061525 
1724.361504  	0.053200 
1726.290320  	0.046453 
1728.219136  	0.040629 
1730.147952  	0.035263 
1732.076768  	0.031114 
1734.005584  	0.024691 
1735.934400  	0.019813 
1737.863216  	0.019971 
1739.792032  	0.016670 
1741.720848  	0.015228 
1743.649664  	0.014182 
1745.578480  	0.013312 
1747.507296  	0.011784 
1749.436112  	0.010674 
1751.364928  	0.009229 
1753.293744  	0.008921 
1755.222560  	0.009030 
1757.151376  	0.008131 
1759.080192  	0.007620 
1761.009008  	0.007081 
1762.937824  	0.005546 
1764.866640  	0.006175 
1766.795456  	0.006465 
1768.724272  	0.005968 
1770.653088  	0.004651 
1772.581904  	0.002459 
1774.510720  	0.002946 
1776.439536  	0.004166 
1778.368352  	0.004370 
1780.297168  	0.004035 
1782.225984  	0.003558 
1784.154800  	0.003897 
1786.083616  	0.003347 
1788.012432  	0.003830 
1789.941248  	0.004051 
1791.870064  	0.002841 
1793.798880  	0.001539 
1795.727696  	0.002775 
1797.656512  	0.002736 
1799.585328  	0.002649 
1801.514144  	0.002437 
1803.442960  	0.002559 
1805.371776  	0.002324 
1807.300592  	0.002544 
1809.229408  	0.002154 
1811.158224  	0.001792 
1813.087040  	0.001508 
1815.015856  	0.001960 
1816.944672  	0.001842 
1818.873488  	0.001975 
1820.802304  	0.001829 
1822.731120  	0.002384 
1824.659936  	0.001692 
1826.588752  	0.001270 
1828.517568  	0.001003 
1830.446384  	0.000346 
1832.375200  	0.000805 
1834.304016  	0.001569 
1836.232832  	0.001553 
1838.161648  	0.001752 
1840.090464  	0.001559 
1842.019280  	0.001901 
1843.948096  	0.000500 
1845.876912  	0.000348 
1847.805728  	0.000982 
1849.734544  	0.001093 
1851.663360  	0.001064 
1853.592176  	0.001157 
1855.520992  	0.001040 
1857.449808  	0.001284 
1859.378624  	0.001189 
1861.307440  	0.001383 
1863.236256  	0.001162 
1865.165072  	0.001434 
1867.093888  	0.001304 
1869.022704  	0.000659 
1870.951520  	0.000380 
1872.880336  	0.001189 
1874.809152  	0.000989 
1876.737968  	0.000934 
1878.666784  	0.000672 
1880.595600  	0.001124 
1882.524416  	0.001030 
1884.453232  	0.001118 
1886.382048  	0.000908 
1888.310864  	0.000999 
1890.239680  	0.000204 
1892.168496  	0.000889 
1894.097312  	0.001225 
1896.026128  	0.001321 
1897.954944  	0.000920 
1899.883760  	0.001061 
1901.812576  	0.000629 
1903.741392  	0.000412 
1905.670208  	0.000637 
1907.599024  	0.001234 
1909.527840  	0.000672 
1911.456656  	0.000863 
1913.385472  	0.001085 
1915.314288  	0.001789 
1917.243104  	0.001273 
1919.171920  	0.000780 
1921.100736  	0.001023 
1923.029552  	0.001244 
1924.958368  	0.000670 
1926.887184  	0.000699 
1928.816000  	0.000465 
1930.744816  	0.000832 
1932.673632  	0.000695 
1934.602448  	0.001223 
1936.531264  	0.001283 
1938.460080  	0.001437 
1940.388896  	0.000904 
1942.317712  	0.000408 
1944.246528  	0.000091 
1946.175344  	0.001622 
1948.104160  	0.002067 
1950.032976  	0.001700 
1951.961792  	0.001001 
1953.890608  	0.001356 
1955.819424  	0.000604 
1957.748240  	0.000603 
1959.677056  	0.000718 
1961.605872  	0.001665 
1963.534688  	0.001233 
1965.463504  	0.001934 
1967.392320  	0.000777 
1969.321136  	0.001201 
1971.249952  	0.001821 
1973.178768  	0.002541 
1975.107584  	0.001889 
1977.036400  	0.003836 
1978.965216  	0.004227 
1980.894032  	0.003356 
1982.822848  	0.002654 
1984.751664  	0.002575 
1986.680480  	0.001427 
1988.609296  	0.002471 
1990.538112  	0.001857 
1992.466928  	0.002052 
1994.395744  	0.001986 
1996.324560  	0.002414 
1998.253376  	0.002056 
2000.182192  	0.001538 
2002.111008  	0.001527 
2004.039824  	0.002235 
2005.968640  	0.001496 
2007.897456  	0.002172 
2009.826272  	0.001551 
2011.755088  	0.002039 
2013.683904  	0.001264 
2015.612720  	0.002056 
2017.541536  	0.002297 
2019.470352  	0.002729 
2021.399168  	0.000717 
2023.327984  	0.000875 
2025.256800  	0.001900 
2027.185616  	0.002965 
2029.114432  	0.002761 
2031.043248  	0.003997 
2032.972064  	0.003920 
2034.900880  	0.002988 
2036.829696  	0.001115 
2038.758512  	0.002108 
2040.687328  	0.002554 
2042.616144  	0.002391 
2044.544960  	0.001575 
2046.473776  	0.002296 
2048.402592  	0.002828 
2050.331408  	0.003130 
2052.260224  	0.001947 
2054.189040  	0.001410 
2056.117856  	0.001105 
2058.046672  	0.001743 
2059.975488  	0.001786 
2061.904304  	0.001699 
2063.833120  	0.001527 
2065.761936  	0.001482 
2067.690752  	0.001180 
2069.619568  	0.001332 
2071.548384  	0.001326 
2073.477200  	0.001377 
2075.406016  	0.001617 
2077.334832  	0.002229 
2079.263648  	0.001866 
2081.192464  	0.001905 
2083.121280  	0.001836 
2085.050096  	0.001740 
2086.978912  	0.001559 
2088.907728  	0.001767 
2090.836544  	0.001386 
2092.765360  	0.001813 
2094.694176  	0.002145 
2096.622992  	0.002394 
2098.551808  	0.002120 
2100.480624  	0.002442 
2102.409440  	0.002504 
2104.338256  	0.002492 
2106.267072  	0.002559 
2108.195888  	0.002679 
2110.124704  	0.002156 
2112.053520  	0.002052 
2113.982336  	0.002042 
2115.911152  	0.002239 
2117.839968  	0.002261 
2119.768784  	0.002412 
2121.697600  	0.001846 
2123.626416  	0.001492 
2125.555232  	0.001066 
2127.484048  	0.001004 
2129.412864  	0.000833 
2131.341680  	0.001116 
2133.270496  	0.001277 
2135.199312  	0.001707 
2137.128128  	0.001807 
2139.056944  	0.002143 
2140.985760  	0.001792 
2142.914576  	0.002123 
2144.843392  	0.002044 
2146.772208  	0.002552 
2148.701024  	0.002259 
2150.629840  	0.002067 
2152.558656  	0.002259 
2154.487472  	0.003268 
2156.416288  	0.002752 
2158.345104  	0.003651 
2160.273920  	0.004344 
2162.202736  	0.004828 
2164.131552  	0.004432 
2166.060368  	0.004846 
2167.989184  	0.005127 
2169.918000  	0.005758 
2171.846816  	0.004450 
2173.775632  	0.004145 
2175.704448  	0.003556 
2177.633264  	0.003411 
2179.562080  	0.003073 
2181.490896  	0.002797 
2183.419712  	0.001993 
2185.348528  	0.002641 
2187.277344  	0.003753 
2189.206160  	0.003840 
2191.134976  	0.003003 
2193.063792  	0.002622 
2194.992608  	0.002406 
2196.921424  	0.002927 
2198.850240  	0.002306 
2200.779056  	0.001887 
2202.707872  	0.001967 
2204.636688  	0.002306 
2206.565504  	0.002245 
2208.494320  	0.002558 
2210.423136  	0.002729 
2212.351952  	0.002432 
2214.280768  	0.001435 
2216.209584  	0.002120 
2218.138400  	0.002356 
2220.067216  	0.002531 
2221.996032  	0.002148 
2223.924848  	0.002278 
2225.853664  	0.002602 
2227.782480  	0.002342 
2229.711296  	0.001367 
2231.640112  	0.001078 
2233.568928  	0.001801 
2235.497744  	0.002433 
2237.426560  	0.001637 
2239.355376  	0.001508 
2241.284192  	0.001680 
2243.213008  	0.001876 
2245.141824  	0.001640 
2247.070640  	0.001827 
2248.999456  	0.001791 
2250.928272  	0.001741 
2252.857088  	0.001338 
2254.785904  	0.001176 
2256.714720  	0.000900 
2258.643536  	0.000928 
2260.572352  	0.000825 
2262.501168  	0.000900 
2264.429984  	0.001022 
2266.358800  	0.001102 
2268.287616  	0.001063 
2270.216432  	0.001207 
2272.145248  	0.001218 
2274.074064  	0.001272 
2276.002880  	0.001516 
2277.931696  	0.001754 
2279.860512  	0.001732 
2281.789328  	0.001915 
2283.718144  	0.001828 
2285.646960  	0.001862 
2287.575776  	0.001938 
2289.504592  	0.001804 
2291.433408  	0.001476 
2293.362224  	0.001616 
2295.291040  	0.001794 
2297.219856  	0.001960 
2299.148672  	0.001883 
2301.077488  	0.001951 
2303.006304  	0.001993 
2304.935120  	0.002074 
2306.863936  	0.001971 
2308.792752  	0.001958 
2310.721568  	0.001776 
2312.650384  	0.001447 
2314.579200  	0.000990 
2316.508016  	0.000506 
2318.436832  	-0.000133 
2320.365648  	-0.000922 
2322.294464  	-0.001977 
2324.223280  	-0.003040 
2326.152096  	-0.004102 
2328.080912  	-0.004986 
2330.009728  	-0.006264 
2331.938544  	-0.007478 
2333.867360  	-0.008273 
2335.796176  	-0.008829 
2337.724992  	-0.009275 
2339.653808  	-0.009389 
2341.582624  	-0.009877 
2343.511440  	-0.009729 
2345.440256  	-0.008375 
2347.369072  	-0.005154 
2349.297888  	-0.002787 
2351.226704  	-0.003987 
2353.155520  	-0.007343 
2355.084336  	-0.010075 
2357.013152  	-0.012313 
2358.941968  	-0.013501 
2360.870784  	-0.014638 
2362.799600  	-0.014215 
2364.728416  	-0.013512 
2366.657232  	-0.011836 
2368.586048  	-0.010108 
2370.514864  	-0.008115 
2372.443680  	-0.005879 
2374.372496  	-0.003782 
2376.301312  	-0.002153 
2378.230128  	-0.000754 
2380.158944  	0.000218 
2382.087760  	0.000814 
2384.016576  	0.000982 
2385.945392  	0.000976 
2387.874208  	0.000890 
2389.803024  	0.000844 
2391.731840  	0.000661 
2393.660656  	0.000563 
2395.589472  	0.000616 
2397.518288  	0.000897 
2399.447104  	0.000728 
2401.375920  	0.000597 
2403.304736  	0.000423 
2405.233552  	0.000588 
2407.162368  	0.000655 
2409.091184  	0.000793 
2411.020000  	0.000857 
2412.948816  	0.000944 
2414.877632  	0.000996 
2416.806448  	0.001054 
2418.735264  	0.000816 
2420.664080  	0.000610 
2422.592896  	0.000584 
2424.521712  	0.000876 
2426.450528  	0.000792 
2428.379344  	0.000843 
2430.308160  	0.001182 
2432.236976  	0.001288 
2434.165792  	0.001000 
2436.094608  	0.001039 
2438.023424  	0.001174 
2439.952240  	0.001430 
2441.881056  	0.001431 
2443.809872  	0.001402 
2445.738688  	0.001428 
2447.667504  	0.001491 
2449.596320  	0.001438 
2451.525136  	0.001459 
2453.453952  	0.001575 
2455.382768  	0.001611 
2457.311584  	0.001394 
2459.240400  	0.001253 
2461.169216  	0.001210 
2463.098032  	0.001232 
2465.026848  	0.001135 
2466.955664  	0.001213 
2468.884480  	0.001282 
2470.813296  	0.001283 
2472.742112  	0.001251 
2474.670928  	0.001399 
2476.599744  	0.001426 
2478.528560  	0.001473 
2480.457376  	0.001577 
2482.386192  	0.001560 
2484.315008  	0.001483 
2486.243824  	0.001468 
2488.172640  	0.001562 
2490.101456  	0.001768 
2492.030272  	0.001883 
2493.959088  	0.001868 
2495.887904  	0.001745 
2497.816720  	0.001780 
2499.745536  	0.001929 
2501.674352  	0.002171 
2503.603168  	0.002417 
2505.531984  	0.002345 
2507.460800  	0.002067 
2509.389616  	0.002211 
2511.318432  	0.002322 
2513.247248  	0.002226 
2515.176064  	0.002272 
2517.104880  	0.002349 
2519.033696  	0.002380 
2520.962512  	0.002601 
2522.891328  	0.002726 
2524.820144  	0.002585 
2526.748960  	0.002564 
2528.677776  	0.002833 
2530.606592  	0.002842 
2532.535408  	0.002962 
2534.464224  	0.003028 
2536.393040  	0.002837 
2538.321856  	0.003056 
2540.250672  	0.003387 
2542.179488  	0.003220 
2544.108304  	0.003001 
2546.037120  	0.003004 
2547.965936  	0.003156 
2549.894752  	0.003391 
2551.823568  	0.003476 
2553.752384  	0.003507 
2555.681200  	0.003812 
2557.610016  	0.003884 
2559.538832  	0.003867 
2561.467648  	0.003996 
2563.396464  	0.004123 
2565.325280  	0.004118 
2567.254096  	0.004026 
2569.182912  	0.004007 
2571.111728  	0.004156 
2573.040544  	0.004210 
2574.969360  	0.004322 
2576.898176  	0.004520 
2578.826992  	0.004452 
2580.755808  	0.004424 
2582.684624  	0.004699 
2584.613440  	0.004755 
2586.542256  	0.004686 
2588.471072  	0.004863 
2590.399888  	0.005081 
2592.328704  	0.005184 
2594.257520  	0.005236 
2596.186336  	0.005150 
2598.115152  	0.005125 
2600.043968  	0.005170 
2601.972784  	0.005372 
2603.901600  	0.005396 
2605.830416  	0.005414 
2607.759232  	0.005531 
2609.688048  	0.005715 
2611.616864  	0.005911 
2613.545680  	0.006147 
2615.474496  	0.006265 
2617.403312  	0.006294 
2619.332128  	0.006214 
2621.260944  	0.006206 
2623.189760  	0.006316 
2625.118576  	0.006455 
2627.047392  	0.006546 
2628.976208  	0.006687 
2630.905024  	0.006844 
2632.833840  	0.006893 
2634.762656  	0.007022 
2636.691472  	0.007139 
2638.620288  	0.007213 
2640.549104  	0.007297 
2642.477920  	0.007406 
2644.406736  	0.007597 
2646.335552  	0.007733 
2648.264368  	0.007832 
2650.193184  	0.007921 
2652.122000  	0.007988 
2654.050816  	0.008115 
2655.979632  	0.008315 
2657.908448  	0.008451 
2659.837264  	0.008486 
2661.766080  	0.008556 
2663.694896  	0.008654 
2665.623712  	0.008765 
2667.552528  	0.009047 
2669.481344  	0.009171 
2671.410160  	0.009181 
2673.338976  	0.009239 
2675.267792  	0.009368 
2677.196608  	0.009546 
2679.125424  	0.009540 
2681.054240  	0.009629 
2682.983056  	0.009943 
2684.911872  	0.009971 
2686.840688  	0.010024 
2688.769504  	0.010183 
2690.698320  	0.010190 
2692.627136  	0.010267 
2694.555952  	0.010479 
2696.484768  	0.010521 
2698.413584  	0.010582 
2700.342400  	0.010680 
2702.271216  	0.010842 
2704.200032  	0.011037 
2706.128848  	0.011126 
2708.057664  	0.011147 
2709.986480  	0.011220 
2711.915296  	0.011398 
2713.844112  	0.011644 
2715.772928  	0.011647 
2717.701744  	0.011709 
2719.630560  	0.011971 
2721.559376  	0.012114 
2723.488192  	0.012220 
2725.417008  	0.012442 
2727.345824  	0.012579 
2729.274640  	0.012654 
2731.203456  	0.012802 
2733.132272  	0.013010 
2735.061088  	0.013108 
2736.989904  	0.013142 
2738.918720  	0.013230 
2740.847536  	0.013341 
2742.776352  	0.013305 
2744.705168  	0.013403 
2746.633984  	0.013587 
2748.562800  	0.013645 
2750.491616  	0.013664 
2752.420432  	0.013825 
2754.349248  	0.013791 
2756.278064  	0.013754 
2758.206880  	0.013710 
2760.135696  	0.013724 
2762.064512  	0.013819 
2763.993328  	0.013895 
2765.922144  	0.013911 
2767.850960  	0.014012 
2769.779776  	0.014104 
2771.708592  	0.014128 
2773.637408  	0.014004 
2775.566224  	0.013957 
2777.495040  	0.013988 
2779.423856  	0.014147 
2781.352672  	0.014180 
2783.281488  	0.014162 
2785.210304  	0.014126 
2787.139120  	0.014119 
2789.067936  	0.014145 
2790.996752  	0.014164 
2792.925568  	0.014128 
2794.854384  	0.014152 
2796.783200  	0.014094 
2798.712016  	0.014012 
2800.640832  	0.014128 
2802.569648  	0.014305 
2804.498464  	0.014311 
2806.427280  	0.014195 
2808.356096  	0.014141 
2810.284912  	0.014332 
2812.213728  	0.014400 
2814.142544  	0.014390 
2816.071360  	0.014395 
2818.000176  	0.014318 
2819.928992  	0.014255 
2821.857808  	0.014173 
2823.786624  	0.014088 
2825.715440  	0.014000 
2827.644256  	0.013865 
2829.573072  	0.013836 
2831.501888  	0.013572 
2833.430704  	0.013185 
2835.359520  	0.012860 
2837.288336  	0.012651 
2839.217152  	0.012449 
2841.145968  	0.012154 
2843.074784  	0.011784 
2845.003600  	0.011409 
2846.932416  	0.011207 
2848.861232  	0.011032 
2850.790048  	0.010632 
2852.718864  	0.009965 
2854.647680  	0.009321 
2856.576496  	0.008620 
2858.505312  	0.007915 
2860.434128  	0.007400 
2862.362944  	0.006755 
2864.291760  	0.005991 
2866.220576  	0.005316 
2868.149392  	0.005038 
2870.078208  	0.004846 
2872.007024  	0.004797 
2873.935840  	0.004978 
2875.864656  	0.005076 
2877.793472  	0.004860 
2879.722288  	0.004666 
2881.651104  	0.004309 
2883.579920  	0.004089 
2885.508736  	0.004291 
2887.437552  	0.004601 
2889.366368  	0.004802 
2891.295184  	0.004644 
2893.224000  	0.004432 
2895.152816  	0.004507 
2897.081632  	0.004195 
2899.010448  	0.002432 
2900.939264  	0.000950 
2902.868080  	0.002273 
2904.796896  	0.003686 
2906.725712  	0.004297 
2908.654528  	0.004924 
2910.583344  	0.005442 
2912.512160  	0.006188 
2914.440976  	0.007595 
2916.369792  	0.008676 
2918.298608  	0.009149 
2920.227424  	0.009545 
2922.156240  	0.010301 
2924.085056  	0.011082 
2926.013872  	0.011864 
2927.942688  	0.012748 
2929.871504  	0.013685 
2931.800320  	0.014495 
2933.729136  	0.015224 
2935.657952  	0.015754 
2937.586768  	0.016287 
2939.515584  	0.017010 
2941.444400  	0.017335 
2943.373216  	0.017282 
2945.302032  	0.017530 
2947.230848  	0.017759 
2949.159664  	0.017479 
2951.088480  	0.016871 
2953.017296  	0.016380 
2954.946112  	0.015802 
2956.874928  	0.015057 
2958.803744  	0.014231 
2960.732560  	0.013707 
2962.661376  	0.013083 
2964.590192  	0.012084 
2966.519008  	0.010799 
2968.447824  	0.009736 
2970.376640  	0.008929 
2972.305456  	0.008332 
2974.234272  	0.008377 
2976.163088  	0.008697 
2978.091904  	0.008706 
2980.020720  	0.008755 
2981.949536  	0.009042 
2983.878352  	0.008893 
2985.807168  	0.007882 
2987.735984  	0.006874 
2989.664800  	0.007307 
2991.593616  	0.010483 
2993.522432  	0.012582 
2995.451248  	0.013160 
2997.380064  	0.014068 
2999.308880  	0.015325 
3001.237696  	0.016585 
3003.166512  	0.017915 
3005.095328  	0.019440 
3007.024144  	0.021059 
3008.952960  	0.022580 
3010.881776  	0.024007 
3012.810592  	0.025309 
3014.739408  	0.026623 
3016.668224  	0.027883 
3018.597040  	0.029103 
3020.525856  	0.030317 
3022.454672  	0.031407 
3024.383488  	0.032577 
3026.312304  	0.033628 
3028.241120  	0.034553 
3030.169936  	0.035502 
3032.098752  	0.036328 
3034.027568  	0.037133 
3035.956384  	0.037914 
3037.885200  	0.038856 
3039.814016  	0.039708 
3041.742832  	0.040344 
3043.671648  	0.040716 
3045.600464  	0.041286 
3047.529280  	0.041795 
3049.458096  	0.042413 
3051.386912  	0.043248 
3053.315728  	0.043898 
3055.244544  	0.044407 
3057.173360  	0.045087 
3059.102176  	0.045712 
3061.030992  	0.046317 
3062.959808  	0.047106 
3064.888624  	0.047842 
3066.817440  	0.048468 
3068.746256  	0.049375 
3070.675072  	0.050312 
3072.603888  	0.050935 
3074.532704  	0.051614 
3076.461520  	0.052358 
3078.390336  	0.053022 
3080.319152  	0.053698 
3082.247968  	0.054411 
3084.176784  	0.055209 
3086.105600  	0.055976 
3088.034416  	0.056741 
3089.963232  	0.057550 
3091.892048  	0.058225 
3093.820864  	0.058832 
3095.749680  	0.059567 
3097.678496  	0.060398 
3099.607312  	0.061172 
3101.536128  	0.062065 
3103.464944  	0.062977 
3105.393760  	0.063605 
3107.322576  	0.064250 
3109.251392  	0.065078 
3111.180208  	0.065867 
3113.109024  	0.066536 
3115.037840  	0.067176 
3116.966656  	0.067780 
3118.895472  	0.068353 
3120.824288  	0.068924 
3122.753104  	0.069556 
3124.681920  	0.070228 
3126.610736  	0.070702 
3128.539552  	0.071296 
3130.468368  	0.071971 
3132.397184  	0.072510 
3134.326000  	0.073105 
3136.254816  	0.073551 
3138.183632  	0.074127 
3140.112448  	0.074806 
3142.041264  	0.075401 
3143.970080  	0.075820 
3145.898896  	0.076322 
3147.827712  	0.077029 
3149.756528  	0.077592 
3151.685344  	0.078084 
3153.614160  	0.078935 
3155.542976  	0.079588 
3157.471792  	0.080030 
3159.400608  	0.080708 
3161.329424  	0.081249 
3163.258240  	0.081635 
3165.187056  	0.082134 
3167.115872  	0.082749 
3169.044688  	0.083307 
3170.973504  	0.083613 
3172.902320  	0.083923 
3174.831136  	0.084478 
3176.759952  	0.085045 
3178.688768  	0.085270 
3180.617584  	0.085584 
3182.546400  	0.085995 
3184.475216  	0.086178 
3186.404032  	0.086030 
3188.332848  	0.086183 
3190.261664  	0.086610 
3192.190480  	0.086799 
3194.119296  	0.086682 
3196.048112  	0.086801 
3197.976928  	0.086805 
3199.905744  	0.086732 
3201.834560  	0.086820 
3203.763376  	0.086842 
3205.692192  	0.086624 
3207.621008  	0.086379 
3209.549824  	0.086461 
3211.478640  	0.086477 
3213.407456  	0.086342 
3215.336272  	0.086240 
3217.265088  	0.086071 
3219.193904  	0.085753 
3221.122720  	0.085641 
3223.051536  	0.085693 
3224.980352  	0.085484 
3226.909168  	0.085286 
3228.837984  	0.084973 
3230.766800  	0.084831 
3232.695616  	0.084920 
3234.624432  	0.084800 
3236.553248  	0.084609 
3238.482064  	0.084607 
3240.410880  	0.084737 
3242.339696  	0.084923 
3244.268512  	0.084784 
3246.197328  	0.084688 
3248.126144  	0.084924 
3250.054960  	0.085099 
3251.983776  	0.085265 
3253.912592  	0.085422 
3255.841408  	0.085661 
3257.770224  	0.085973 
3259.699040  	0.086180 
3261.627856  	0.086289 
3263.556672  	0.086370 
3265.485488  	0.086519 
3267.414304  	0.086630 
3269.343120  	0.086909 
3271.271936  	0.087258 
3273.200752  	0.087364 
3275.129568  	0.087391 
3277.058384  	0.087654 
3278.987200  	0.087804 
3280.916016  	0.087997 
3282.844832  	0.088309 
3284.773648  	0.088513 
3286.702464  	0.088733 
3288.631280  	0.088950 
3290.560096  	0.089053 
3292.488912  	0.089263 
3294.417728  	0.089727 
3296.346544  	0.090078 
3298.275360  	0.090201 
3300.204176  	0.090547 
3302.132992  	0.090899 
3304.061808  	0.091230 
3305.990624  	0.091589 
3307.919440  	0.091808 
3309.848256  	0.092013 
3311.777072  	0.092350 
3313.705888  	0.092587 
3315.634704  	0.093009 
3317.563520  	0.093293 
3319.492336  	0.093444 
3321.421152  	0.093738 
3323.349968  	0.094017 
3325.278784  	0.094191 
3327.207600  	0.094289 
3329.136416  	0.094270 
3331.065232  	0.094406 
3332.994048  	0.094499 
3334.922864  	0.094558 
3336.851680  	0.094524 
3338.780496  	0.094324 
3340.709312  	0.094133 
3342.638128  	0.094098 
3344.566944  	0.093944 
3346.495760  	0.093696 
3348.424576  	0.093365 
3350.353392  	0.093070 
3352.282208  	0.092854 
3354.211024  	0.092549 
3356.139840  	0.092177 
3358.068656  	0.091957 
3359.997472  	0.091653 
3361.926288  	0.091137 
3363.855104  	0.090764 
3365.783920  	0.090329 
3367.712736  	0.089856 
3369.641552  	0.089511 
3371.570368  	0.089192 
3373.499184  	0.088860 
3375.428000  	0.088396 
3377.356816  	0.088023 
3379.285632  	0.087765 
3381.214448  	0.087403 
3383.143264  	0.086968 
3385.072080  	0.086530 
3387.000896  	0.086045 
3388.929712  	0.085578 
3390.858528  	0.085189 
3392.787344  	0.084844 
3394.716160  	0.084375 
3396.644976  	0.083995 
3398.573792  	0.083579 
3400.502608  	0.083147 
3402.431424  	0.082491 
3404.360240  	0.081982 
3406.289056  	0.081457 
3408.217872  	0.081155 
3410.146688  	0.080865 
3412.075504  	0.080516 
3414.004320  	0.080085 
3415.933136  	0.079576 
3417.861952  	0.078885 
3419.790768  	0.078315 
3421.719584  	0.077670 
3423.648400  	0.077367 
3425.577216  	0.076913 
3427.506032  	0.076291 
3429.434848  	0.075928 
3431.363664  	0.075466 
3433.292480  	0.074785 
3435.221296  	0.074046 
3437.150112  	0.073465 
3439.078928  	0.073203 
3441.007744  	0.072793 
3442.936560  	0.072242 
3444.865376  	0.071638 
3446.794192  	0.070645 
3448.723008  	0.069835 
3450.651824  	0.069439 
3452.580640  	0.068800 
3454.509456  	0.068334 
3456.438272  	0.067811 
3458.367088  	0.067199 
3460.295904  	0.066587 
3462.224720  	0.065745 
3464.153536  	0.064746 
3466.082352  	0.064079 
3468.011168  	0.063428 
3469.939984  	0.062562 
3471.868800  	0.061753 
3473.797616  	0.061009 
3475.726432  	0.060321 
3477.655248  	0.059713 
3479.584064  	0.059225 
3481.512880  	0.058398 
3483.441696  	0.057326 
3485.370512  	0.056895 
3487.299328  	0.055944 
3489.228144  	0.055172 
3491.156960  	0.054525 
3493.085776  	0.053804 
3495.014592  	0.053040 
3496.943408  	0.052185 
3498.872224  	0.051506 
3500.801040  	0.051154 
3502.729856  	0.050184 
3504.658672  	0.049110 
3506.587488  	0.048882 
3508.516304  	0.048542 
3510.445120  	0.047506 
3512.373936  	0.046831 
3514.302752  	0.046442 
3516.231568  	0.046076 
3518.160384  	0.045584 
3520.089200  	0.044949 
3522.018016  	0.044397 
3523.946832  	0.043807 
3525.875648  	0.043093 
3527.804464  	0.042039 
3529.733280  	0.041179 
3531.662096  	0.040898 
3533.590912  	0.040606 
3535.519728  	0.040266 
3537.448544  	0.039578 
3539.377360  	0.038853 
3541.306176  	0.038444 
3543.234992  	0.038034 
3545.163808  	0.037428 
3547.092624  	0.036504 
3549.021440  	0.035858 
3550.950256  	0.035485 
3552.879072  	0.034468 
3554.807888  	0.034040 
3556.736704  	0.033723 
3558.665520  	0.033212 
3560.594336  	0.032537 
3562.523152  	0.031962 
3564.451968  	0.031862 
3566.380784  	0.030979 
3568.309600  	0.028489 
3570.238416  	0.028421 
3572.167232  	0.028858 
3574.096048  	0.028280 
3576.024864  	0.027348 
3577.953680  	0.026666 
3579.882496  	0.025987 
3581.811312  	0.025374 
3583.740128  	0.025001 
3585.668944  	0.024907 
3587.597760  	0.022817 
3589.526576  	0.021267 
3591.455392  	0.021735 
3593.384208  	0.021548 
3595.313024  	0.020224 
3597.241840  	0.019125 
3599.170656  	0.018353 
3601.099472  	0.017390 
3603.028288  	0.017055 
3604.957104  	0.017167 
3606.885920  	0.016365 
3608.814736  	0.014660 
3610.743552  	0.014526 
3612.672368  	0.013648 
3614.601184  	0.011731 
3616.530000  	0.011926 
3618.458816  	0.010275 
3620.387632  	0.007985 
3622.316448  	0.008313 
3624.245264  	0.008840 
3626.174080  	0.009194 
3628.102896  	0.006933 
3630.031712  	0.001694 
3631.960528  	0.003700 
3633.889344  	0.003776 
3635.818160  	0.002844 
3637.746976  	0.002380 
3639.675792  	0.002038 
3641.604608  	0.001750 
3643.533424  	0.001160 
3645.462240  	0.001026 
3647.391056  	-0.001376 
3649.319872  	-0.006157 
3651.248688  	-0.008530 
3653.177504  	-0.005551 
3655.106320  	-0.004809 
3657.035136  	-0.008225 
3658.963952  	-0.008197 
3660.892768  	-0.007795 
3662.821584  	-0.007927 
3664.750400  	-0.007871 
3666.679216  	-0.007287 
3668.608032  	-0.008256 
3670.536848  	-0.012447 
3672.465664  	-0.010586 
3674.394480  	-0.009542 
3676.323296  	-0.016021 
3678.252112  	-0.013191 
3680.180928  	-0.011186 
3682.109744  	-0.010450 
3684.038560  	-0.010117 
3685.967376  	-0.009171 
3687.896192  	-0.010758 
3689.825008  	-0.014616 
3691.753824  	-0.014119 
3693.682640  	-0.011859 
3695.611456  	-0.010602 
3697.540272  	-0.009919 
3699.469088  	-0.008623 
3701.397904  	-0.009714 
3703.326720  	-0.010335 
3705.255536  	-0.008285 
3707.184352  	-0.007086 
3709.113168  	-0.007932 
3711.041984  	-0.010526 
3712.970800  	-0.011150 
3714.899616  	-0.008581 
3716.828432  	-0.006893 
3718.757248  	-0.007031 
3720.686064  	-0.007284 
3722.614880  	-0.007900 
3724.543696  	-0.007793 
3726.472512  	-0.008402 
3728.401328  	-0.008068 
3730.330144  	-0.006855 
3732.258960  	-0.008138 
3734.187776  	-0.008555 
3736.116592  	-0.010576 
3738.045408  	-0.010394 
3739.974224  	-0.007883 
3741.903040  	-0.005605 
3743.831856  	-0.007319 
3745.760672  	-0.011925 
3747.689488  	-0.008101 
3749.618304  	-0.009097 
3751.547120  	-0.012316 
3753.475936  	-0.011658 
3755.404752  	-0.008331 
3757.333568  	-0.007430 
3759.262384  	-0.008613 
3761.191200  	-0.008970 
3763.120016  	-0.006700 
3765.048832  	-0.006836 
3766.977648  	-0.007261 
3768.906464  	-0.007434 
3770.835280  	-0.009054 
3772.764096  	-0.007946 
3774.692912  	-0.006830 
3776.621728  	-0.006204 
3778.550544  	-0.006983 
3780.479360  	-0.008769 
3782.408176  	-0.007266 
3784.336992  	-0.007191 
3786.265808  	-0.007746 
3788.194624  	-0.007309 
3790.123440  	-0.007190 
3792.052256  	-0.006960 
3793.981072  	-0.006134 
3795.909888  	-0.007045 
3797.838704  	-0.007770 
3799.767520  	-0.006732 
3801.696336  	-0.011088 
3803.625152  	-0.010559 
3805.553968  	-0.007591 
3807.482784  	-0.010016 
3809.411600  	-0.008793 
3811.340416  	-0.006902 
3813.269232  	-0.005575 
3815.198048  	-0.006946 
3817.126864  	-0.010032 
3819.055680  	-0.007576 
3820.984496  	-0.010272 
3822.913312  	-0.011167 
3824.842128  	-0.007685 
3826.770944  	-0.008066 
3828.699760  	-0.007537 
3830.628576  	-0.006939 
3832.557392  	-0.007961 
3834.486208  	-0.007478 
3836.415024  	-0.007703 
3838.343840  	-0.009817 
3840.272656  	-0.010299 
3842.201472  	-0.008847 
3844.130288  	-0.008795 
3846.059104  	-0.007813 
3847.987920  	-0.006230 
3849.916736  	-0.005176 
3851.845552  	-0.005557 
3853.774368  	-0.013030 
3855.703184  	-0.012777 
3857.632000  	-0.009134 
3859.560816  	-0.006948 
3861.489632  	-0.006464 
3863.418448  	-0.007292 
3865.347264  	-0.008706 
3867.276080  	-0.007002 
3869.204896  	-0.007338 
3871.133712  	-0.009668 
3873.062528  	-0.007934 
3874.991344  	-0.008912 
3876.920160  	-0.007033 
3878.848976  	-0.005580 
3880.777792  	-0.007665 
3882.706608  	-0.007234 
3884.635424  	-0.006486 
3886.564240  	-0.008850 
3888.493056  	-0.006949 
3890.421872  	-0.006467 
3892.350688  	-0.008640 
3894.279504  	-0.007819 
3896.208320  	-0.006025 
3898.137136  	-0.005394 
3900.065952  	-0.006435 
3901.994768  	-0.006828 
3903.923584  	-0.008055 
3905.852400  	-0.008996 
3907.781216  	-0.007669 
3909.710032  	-0.006673 
3911.638848  	-0.006642 
3913.567664  	-0.006253 
3915.496480  	-0.005773 
3917.425296  	-0.006860 
3919.354112  	-0.007398 
3921.282928  	-0.007079 
3923.211744  	-0.006323 
3925.140560  	-0.006776 
3927.069376  	-0.006742 
3928.998192  	-0.006351 
3930.927008  	-0.006517 
3932.855824  	-0.007179 
3934.784640  	-0.007296 
3936.713456  	-0.006733 
3938.642272  	-0.006356 
3940.571088  	-0.005765 
3942.499904  	-0.006215 
3944.428720  	-0.006819 
3946.357536  	-0.006011 
3948.286352  	-0.005981 
3950.215168  	-0.006568 
3952.143984  	-0.006726 
3954.072800  	-0.006560 
3956.001616  	-0.006417 
3957.930432  	-0.006495 
3959.859248  	-0.006469 
3961.788064  	-0.006531 
3963.716880  	-0.006733 
3965.645696  	-0.006772 
3967.574512  	-0.006700 
3969.503328  	-0.006490 
3971.432144  	-0.006434 
3973.360960  	-0.006569 
3975.289776  	-0.006746 
3977.218592  	-0.006646 
3979.147408  	-0.006607 
3981.076224  	-0.006711 
3983.005040  	-0.006785 
3984.933856  	-0.006681 
3986.862672  	-0.006678 
3988.791488  	-0.006500 
3990.720304  	-0.006383 
3992.649120  	-0.006447 
3994.577936  	-0.006571 
3996.506752  	-0.006477 
3998.435568  	-0.006411 
4000.364384  	-0.006517 