##TITLE=No Description
##DATA TYPE=INFRARED SPECTRUM
##XUNITS=1/CM
##YUNITS=Abs
399.264912  	0.300831 
401.193728  	0.293804 
403.122544  	0.297457 
405.051360  	0.292501 
406.980176  	0.287186 
408.908992  	0.288351 
410.837808  	0.296263 
412.766624  	0.297281 
414.695440  	0.290515 
416.624256  	0.283925 
418.553072  	0.290430 
420.481888  	0.297141 
422.410704  	0.298601 
424.339520  	0.294809 
426.268336  	0.290963 
428.197152  	0.287233 
430.125968  	0.290297 
432.054784  	0.289434 
433.983600  	0.288620 
435.912416  	0.286335 
437.841232  	0.289201 
439.770048  	0.288312 
441.698864  	0.286032 
443.627680  	0.284071 
445.556496  	0.284222 
447.485312  	0.282352 
449.414128  	0.282561 
451.342944  	0.285883 
453.271760  	0.287465 
455.200576  	0.285263 
457.129392  	0.288696 
459.058208  	0.289763 
460.987024  	0.292208 
462.915840  	0.295389 
464.844656  	0.297351 
466.773472  	0.298093 
468.702288  	0.299433 
470.631104  	0.296108 
472.559920  	0.296156 
474.488736  	0.299547 
476.417552  	0.302396 
478.346368  	0.301969 
480.275184  	0.304553 
482.204000  	0.305138 
484.132816  	0.305668 
486.061632  	0.308662 
487.990448  	0.312453 
489.919264  	0.313333 
491.848080  	0.315997 
493.776896  	0.314674 
495.705712  	0.314421 
497.634528  	0.317187 
499.563344  	0.319025 
501.492160  	0.317405 
503.420976  	0.318587 
505.349792  	0.319951 
507.278608  	0.320653 
509.207424  	0.322427 
511.136240  	0.326416 
513.065056  	0.328534 
514.993872  	0.331708 
516.922688  	0.335072 
518.851504  	0.338934 
520.780320  	0.338783 
522.709136  	0.340488 
524.637952  	0.343887 
526.566768  	0.346988 
528.495584  	0.347772 
530.424400  	0.349325 
532.353216  	0.347969 
534.282032  	0.346376 
536.210848  	0.343166 
538.139664  	0.339535 
540.068480  	0.334881 
541.997296  	0.331160 
543.926112  	0.327525 
545.854928  	0.326053 
547.783744  	0.325161 
549.712560  	0.323177 
551.641376  	0.320270 
553.570192  	0.317912 
555.499008  	0.315350 
557.427824  	0.313199 
559.356640  	0.310339 
561.285456  	0.307415 
563.214272  	0.304567 
565.143088  	0.302466 
567.071904  	0.299232 
569.000720  	0.296032 
570.929536  	0.294005 
572.858352  	0.292215 
574.787168  	0.290286 
576.715984  	0.289133 
578.644800  	0.286094 
580.573616  	0.283380 
582.502432  	0.280332 
584.431248  	0.277508 
586.360064  	0.274108 
588.288880  	0.272251 
590.217696  	0.270671 
592.146512  	0.268986 
594.075328  	0.266884 
596.004144  	0.265903 
597.932960  	0.265212 
599.861776  	0.263837 
601.790592  	0.262294 
603.719408  	0.261900 
605.648224  	0.261771 
607.577040  	0.261651 
609.505856  	0.261135 
611.434672  	0.260394 
613.363488  	0.259735 
615.292304  	0.259551 
617.221120  	0.258843 
619.149936  	0.258288 
621.078752  	0.257855 
623.007568  	0.257509 
624.936384  	0.256030 
626.865200  	0.255397 
628.794016  	0.255623 
630.722832  	0.256096 
632.651648  	0.256492 
634.580464  	0.257460 
636.509280  	0.258852 
638.438096  	0.260390 
640.366912  	0.261076 
642.295728  	0.261206 
644.224544  	0.260290 
646.153360  	0.258695 
648.082176  	0.256299 
650.010992  	0.253372 
651.939808  	0.250201 
653.868624  	0.247161 
655.797440  	0.243963 
657.726256  	0.240673 
659.655072  	0.237663 
661.583888  	0.234257 
663.512704  	0.230556 
665.441520  	0.228635 
667.370336  	0.224498 
669.299152  	0.218191 
671.227968  	0.216405 
673.156784  	0.214188 
675.085600  	0.212324 
677.014416  	0.210565 
678.943232  	0.209076 
680.872048  	0.208072 
682.800864  	0.206999 
684.729680  	0.206007 
686.658496  	0.205456 
688.587312  	0.204502 
690.516128  	0.203334 
692.444944  	0.202474 
694.373760  	0.202002 
696.302576  	0.200861 
698.231392  	0.199515 
700.160208  	0.197648 
702.089024  	0.196051 
704.017840  	0.194555 
705.946656  	0.192660 
707.875472  	0.190724 
709.804288  	0.189044 
711.733104  	0.187672 
713.661920  	0.186240 
715.590736  	0.185309 
717.519552  	0.185301 
719.448368  	0.186342 
721.377184  	0.187547 
723.306000  	0.189253 
725.234816  	0.190943 
727.163632  	0.191296 
729.092448  	0.190189 
731.021264  	0.187898 
732.950080  	0.185039 
734.878896  	0.182117 
736.807712  	0.179475 
738.736528  	0.177271 
740.665344  	0.175756 
742.594160  	0.174584 
744.522976  	0.173512 
746.451792  	0.172354 
748.380608  	0.171240 
750.309424  	0.170622 
752.238240  	0.170414 
754.167056  	0.170000 
756.095872  	0.169236 
758.024688  	0.168907 
759.953504  	0.169173 
761.882320  	0.170505 
763.811136  	0.171983 
765.739952  	0.172206 
767.668768  	0.170648 
769.597584  	0.168913 
771.526400  	0.168736 
773.455216  	0.170839 
775.384032  	0.175475 
777.312848  	0.181881 
779.241664  	0.187449 
781.170480  	0.189434 
783.099296  	0.187671 
785.028112  	0.182821 
786.956928  	0.177154 
788.885744  	0.172544 
790.814560  	0.169337 
792.743376  	0.167271 
794.672192  	0.166414 
796.601008  	0.166258 
798.529824  	0.164215 
800.458640  	0.160009 
802.387456  	0.156506 
804.316272  	0.155069 
806.245088  	0.154496 
808.173904  	0.154329 
810.102720  	0.154661 
812.031536  	0.155260 
813.960352  	0.156025 
815.889168  	0.157057 
817.817984  	0.158080 
819.746800  	0.159162 
821.675616  	0.160158 
823.604432  	0.160538 
825.533248  	0.160780 
827.462064  	0.160706 
829.390880  	0.160169 
831.319696  	0.159276 
833.248512  	0.157998 
835.177328  	0.156284 
837.106144  	0.154241 
839.034960  	0.151817 
840.963776  	0.148822 
842.892592  	0.145383 
844.821408  	0.141807 
846.750224  	0.138859 
848.679040  	0.136555 
850.607856  	0.134794 
852.536672  	0.133139 
854.465488  	0.131860 
856.394304  	0.130889 
858.323120  	0.129552 
860.251936  	0.127694 
862.180752  	0.125731 
864.109568  	0.123441 
866.038384  	0.121029 
867.967200  	0.119284 
869.896016  	0.117676 
871.824832  	0.116772 
873.753648  	0.116660 
875.682464  	0.117592 
877.611280  	0.118126 
879.540096  	0.118883 
881.468912  	0.121030 
883.397728  	0.122755 
885.326544  	0.123853 
887.255360  	0.124163 
889.184176  	0.123545 
891.112992  	0.121807 
893.041808  	0.120250 
894.970624  	0.118299 
896.899440  	0.115095 
898.828256  	0.111131 
900.757072  	0.107469 
902.685888  	0.104699 
904.614704  	0.103125 
906.543520  	0.103405 
908.472336  	0.104962 
910.401152  	0.107640 
912.329968  	0.110921 
914.258784  	0.114666 
916.187600  	0.118036 
918.116416  	0.120948 
920.045232  	0.123001 
921.974048  	0.124140 
923.902864  	0.124675 
925.831680  	0.124704 
927.760496  	0.125019 
929.689312  	0.125641 
931.618128  	0.126630 
933.546944  	0.127537 
935.475760  	0.128235 
937.404576  	0.128641 
939.333392  	0.128711 
941.262208  	0.129014 
943.191024  	0.130821 
945.119840  	0.134944 
947.048656  	0.141191 
948.977472  	0.149136 
950.906288  	0.158484 
952.835104  	0.168872 
954.763920  	0.179805 
956.692736  	0.190276 
958.621552  	0.199379 
960.550368  	0.205701 
962.479184  	0.208960 
964.408000  	0.208495 
966.336816  	0.204343 
968.265632  	0.196775 
970.194448  	0.186477 
972.123264  	0.174382 
974.052080  	0.161642 
975.980896  	0.148800 
977.909712  	0.136727 
979.838528  	0.126167 
981.767344  	0.117449 
983.696160  	0.110799 
985.624976  	0.106629 
987.553792  	0.105060 
989.482608  	0.106126 
991.411424  	0.109674 
993.340240  	0.114843 
995.269056  	0.121392 
997.197872  	0.128440 
999.126688  	0.135482 
1001.055504  	0.142531 
1002.984320  	0.149475 
1004.913136  	0.156140 
1006.841952  	0.162513 
1008.770768  	0.167707 
1010.699584  	0.171277 
1012.628400  	0.173258 
1014.557216  	0.173805 
1016.486032  	0.173832 
1018.414848  	0.173524 
1020.343664  	0.172928 
1022.272480  	0.171820 
1024.201296  	0.170326 
1026.130112  	0.166997 
1028.058928  	0.165789 
1029.987744  	0.168715 
1031.916560  	0.170344 
1033.845376  	0.171092 
1035.774192  	0.172072 
1037.703008  	0.174278 
1039.631824  	0.179831 
1041.560640  	0.187824 
1043.489456  	0.198442 
1045.418272  	0.211372 
1047.347088  	0.225941 
1049.275904  	0.239770 
1051.204720  	0.250979 
1053.133536  	0.258371 
1055.062352  	0.261712 
1056.991168  	0.261336 
1058.919984  	0.262422 
1060.848800  	0.263351 
1062.777616  	0.260547 
1064.706432  	0.253615 
1066.635248  	0.247632 
1068.564064  	0.245489 
1070.492880  	0.240808 
1072.421696  	0.233412 
1074.350512  	0.227728 
1076.279328  	0.225418 
1078.208144  	0.226671 
1080.136960  	0.230228 
1082.065776  	0.234743 
1083.994592  	0.237679 
1085.923408  	0.238167 
1087.852224  	0.236439 
1089.781040  	0.232995 
1091.709856  	0.228229 
1093.638672  	0.221175 
1095.567488  	0.211422 
1097.496304  	0.200625 
1099.425120  	0.189053 
1101.353936  	0.177516 
1103.282752  	0.166192 
1105.211568  	0.155343 
1107.140384  	0.144626 
1109.069200  	0.134408 
1110.998016  	0.125115 
1112.926832  	0.116639 
1114.855648  	0.108683 
1116.784464  	0.101036 
1118.713280  	0.093920 
1120.642096  	0.087394 
1122.570912  	0.081203 
1124.499728  	0.075063 
1126.428544  	0.069665 
1128.357360  	0.064872 
1130.286176  	0.060908 
1132.214992  	0.057411 
1134.143808  	0.054662 
1136.072624  	0.052188 
1138.001440  	0.049946 
1139.930256  	0.047424 
1141.859072  	0.044989 
1143.787888  	0.042507 
1145.716704  	0.040315 
1147.645520  	0.038189 
1149.574336  	0.036384 
1151.503152  	0.034913 
1153.431968  	0.034349 
1155.360784  	0.034452 
1157.289600  	0.035442 
1159.218416  	0.036929 
1161.147232  	0.038823 
1163.076048  	0.040952 
1165.004864  	0.043410 
1166.933680  	0.045838 
1168.862496  	0.048459 
1170.791312  	0.050894 
1172.720128  	0.053892 
1174.648944  	0.056997 
1176.577760  	0.060067 
1178.506576  	0.062716 
1180.435392  	0.065696 
1182.364208  	0.068602 
1184.293024  	0.071585 
1186.221840  	0.074967 
1188.150656  	0.079017 
1190.079472  	0.083737 
1192.008288  	0.089387 
1193.937104  	0.095896 
1195.865920  	0.103435 
1197.794736  	0.111715 
1199.723552  	0.120829 
1201.652368  	0.130155 
1203.581184  	0.139170 
1205.510000  	0.148072 
1207.438816  	0.156516 
1209.367632  	0.164381 
1211.296448  	0.171245 
1213.225264  	0.176881 
1215.154080  	0.181200 
1217.082896  	0.184187 
1219.011712  	0.185916 
1220.940528  	0.187110 
1222.869344  	0.187774 
1224.798160  	0.187793 
1226.726976  	0.186819 
1228.655792  	0.185481 
1230.584608  	0.183521 
1232.513424  	0.181261 
1234.442240  	0.178467 
1236.371056  	0.174958 
1238.299872  	0.170187 
1240.228688  	0.163162 
1242.157504  	0.156133 
1244.086320  	0.150512 
1246.015136  	0.143394 
1247.943952  	0.135386 
1249.872768  	0.127551 
1251.801584  	0.120705 
1253.730400  	0.113933 
1255.659216  	0.107291 
1257.588032  	0.101051 
1259.516848  	0.095210 
1261.445664  	0.089838 
1263.374480  	0.084925 
1265.303296  	0.080707 
1267.232112  	0.077366 
1269.160928  	0.074886 
1271.089744  	0.073035 
1273.018560  	0.072238 
1274.947376  	0.072263 
1276.876192  	0.072425 
1278.805008  	0.072107 
1280.733824  	0.070947 
1282.662640  	0.069042 
1284.591456  	0.066678 
1286.520272  	0.064426 
1288.449088  	0.062908 
1290.377904  	0.062108 
1292.306720  	0.061980 
1294.235536  	0.061757 
1296.164352  	0.060569 
1298.093168  	0.058163 
1300.021984  	0.055334 
1301.950800  	0.052292 
1303.879616  	0.049388 
1305.808432  	0.046491 
1307.737248  	0.043701 
1309.666064  	0.041012 
1311.594880  	0.038924 
1313.523696  	0.037184 
1315.452512  	0.036092 
1317.381328  	0.035586 
1319.310144  	0.035551 
1321.238960  	0.035796 
1323.167776  	0.036593 
1325.096592  	0.037420 
1327.025408  	0.038059 
1328.954224  	0.038101 
1330.883040  	0.037742 
1332.811856  	0.037037 
1334.740672  	0.036513 
1336.669488  	0.036124 
1338.598304  	0.035660 
1340.527120  	0.034282 
1342.455936  	0.033409 
1344.384752  	0.033278 
1346.313568  	0.033535 
1348.242384  	0.034157 
1350.171200  	0.035341 
1352.100016  	0.036848 
1354.028832  	0.038722 
1355.957648  	0.040477 
1357.886464  	0.042412 
1359.815280  	0.044539 
1361.744096  	0.046463 
1363.672912  	0.047483 
1365.601728  	0.048906 
1367.530544  	0.050191 
1369.459360  	0.050356 
1371.388176  	0.050068 
1373.316992  	0.048652 
1375.245808  	0.045363 
1377.174624  	0.042983 
1379.103440  	0.040179 
1381.032256  	0.037451 
1382.961072  	0.035510 
1384.889888  	0.034830 
1386.818704  	0.033776 
1388.747520  	0.031840 
1390.676336  	0.029959 
1392.605152  	0.027056 
1394.533968  	0.024831 
1396.462784  	0.027377 
1398.391600  	0.028812 
1400.320416  	0.028236 
1402.249232  	0.028811 
1404.178048  	0.029278 
1406.106864  	0.029817 
1408.035680  	0.031972 
1409.964496  	0.034434 
1411.893312  	0.037164 
1413.822128  	0.040201 
1415.750944  	0.043585 
1417.679760  	0.045677 
1419.608576  	0.045259 
1421.537392  	0.045953 
1423.466208  	0.046106 
1425.395024  	0.044277 
1427.323840  	0.043398 
1429.252656  	0.041204 
1431.181472  	0.039392 
1433.110288  	0.039374 
1435.039104  	0.040390 
1436.967920  	0.039218 
1438.896736  	0.039788 
1440.825552  	0.041112 
1442.754368  	0.041702 
1444.683184  	0.041900 
1446.612000  	0.041837 
1448.540816  	0.040523 
1450.469632  	0.040931 
1452.398448  	0.041835 
1454.327264  	0.043221 
1456.256080  	0.042942 
1458.184896  	0.039832 
1460.113712  	0.041277 
1462.042528  	0.043449 
1463.971344  	0.043618 
1465.900160  	0.043789 
1467.828976  	0.046715 
1469.757792  	0.050599 
1471.686608  	0.053708 
1473.615424  	0.058188 
1475.544240  	0.064089 
1477.473056  	0.069300 
1479.401872  	0.073170 
1481.330688  	0.075892 
1483.259504  	0.077565 
1485.188320  	0.078793 
1487.117136  	0.078360 
1489.045952  	0.077009 
1490.974768  	0.073405 
1492.903584  	0.071724 
1494.832400  	0.069294 
1496.761216  	0.063029 
1498.690032  	0.057105 
1500.618848  	0.053421 
1502.547664  	0.050666 
1504.476480  	0.048206 
1506.405296  	0.041464 
1508.334112  	0.036288 
1510.262928  	0.037118 
1512.191744  	0.036277 
1514.120560  	0.035846 
1516.049376  	0.035310 
1517.978192  	0.034551 
1519.907008  	0.036502 
1521.835824  	0.036449 
1523.764640  	0.040167 
1525.693456  	0.043934 
1527.622272  	0.045764 
1529.551088  	0.047108 
1531.479904  	0.047531 
1533.408720  	0.043782 
1535.337536  	0.040855 
1537.266352  	0.040691 
1539.195168  	0.034963 
1541.123984  	0.026966 
1543.052800  	0.027809 
1544.981616  	0.027622 
1546.910432  	0.027728 
1548.839248  	0.028370 
1550.768064  	0.028193 
1552.696880  	0.028895 
1554.625696  	0.029581 
1556.554512  	0.030911 
1558.483328  	0.029902 
1560.412144  	0.031068 
1562.340960  	0.038387 
1564.269776  	0.042812 
1566.198592  	0.047962 
1568.127408  	0.052569 
1570.056224  	0.057180 
1571.985040  	0.063726 
1573.913856  	0.069093 
1575.842672  	0.070093 
1577.771488  	0.071732 
1579.700304  	0.073868 
1581.629120  	0.073926 
1583.557936  	0.073352 
1585.486752  	0.074168 
1587.415568  	0.076444 
1589.344384  	0.080721 
1591.273200  	0.086335 
1593.202016  	0.093167 
1595.130832  	0.100097 
1597.059648  	0.107399 
1598.988464  	0.113564 
1600.917280  	0.118792 
1602.846096  	0.121953 
1604.774912  	0.123944 
1606.703728  	0.123881 
1608.632544  	0.122846 
1610.561360  	0.121092 
1612.490176  	0.120099 
1614.418992  	0.118907 
1616.347808  	0.116511 
1618.276624  	0.116892 
1620.205440  	0.121662 
1622.134256  	0.125073 
1624.063072  	0.130206 
1625.991888  	0.136889 
1627.920704  	0.144605 
1629.849520  	0.153574 
1631.778336  	0.162614 
1633.707152  	0.169214 
1635.635968  	0.175488 
1637.564784  	0.183395 
1639.493600  	0.190560 
1641.422416  	0.195061 
1643.351232  	0.198668 
1645.280048  	0.199281 
1647.208864  	0.197591 
1649.137680  	0.198091 
1651.066496  	0.199375 
1652.995312  	0.192248 
1654.924128  	0.188730 
1656.852944  	0.189764 
1658.781760  	0.188195 
1660.710576  	0.184855 
1662.639392  	0.179685 
1664.568208  	0.175670 
1666.497024  	0.173894 
1668.425840  	0.169013 
1670.354656  	0.162217 
1672.283472  	0.159678 
1674.212288  	0.157477 
1676.141104  	0.152599 
1678.069920  	0.152114 
1679.998736  	0.151400 
1681.927552  	0.150716 
1683.856368  	0.146226 
1685.785184  	0.143982 
1687.714000  	0.146199 
1689.642816  	0.145470 
1691.571632  	0.144021 
1693.500448  	0.143697 
1695.429264  	0.139688 
1697.358080  	0.135688 
1699.286896  	0.133680 
1701.215712  	0.126778 
1703.144528  	0.126621 
1705.073344  	0.123035 
1707.002160  	0.117032 
1708.930976  	0.113126 
1710.859792  	0.107826 
1712.788608  	0.101848 
1714.717424  	0.094439 
1716.646240  	0.084747 
1718.575056  	0.072035 
1720.503872  	0.065607 
1722.432688  	0.060303 
1724.361504  	0.052161 
1726.290320  	0.045736 
1728.219136  	0.040142 
1730.147952  	0.034757 
1732.076768  	0.030810 
1734.005584  	0.023937 
1735.934400  	0.018842 
1737.863216  	0.019768 
1739.792032  	0.016422 
1741.720848  	0.014975 
1743.649664  	0.014137 
1745.578480  	0.013364 
1747.507296  	0.011849 
1749.436112  	0.010484 
1751.364928  	0.008655 
1753.293744  	0.008512 
1755.222560  	0.008940 
1757.151376  	0.007849 
1759.080192  	0.007441 
1761.009008  	0.007130 
1762.937824  	0.005300 
1764.866640  	0.005971 
1766.795456  	0.006449 
1768.724272  	0.005810 
1770.653088  	0.004811 
1772.581904  	0.002327 
1774.510720  	0.002650 
1776.439536  	0.004130 
1778.368352  	0.004548 
1780.297168  	0.004139 
1782.225984  	0.003486 
1784.154800  	0.003905 
1786.083616  	0.003266 
1788.012432  	0.003866 
1789.941248  	0.004323 
1791.870064  	0.002957 
1793.798880  	0.001315 
1795.727696  	0.002639 
1797.656512  	0.002764 
1799.585328  	0.002820 
1801.514144  	0.002288 
1803.442960  	0.002397 
1805.371776  	0.002322 
1807.300592  	0.002592 
1809.229408  	0.002132 
1811.158224  	0.001606 
1813.087040  	0.001433 
1815.015856  	0.002071 
1816.944672  	0.001850 
1818.873488  	0.001901 
1820.802304  	0.002012 
1822.731120  	0.002793 
1824.659936  	0.001965 
1826.588752  	0.001469 
1828.517568  	0.001320 
1830.446384  	0.000296 
1832.375200  	0.000806 
1834.304016  	0.001778 
1836.232832  	0.001779 
1838.161648  	0.001822 
1840.090464  	0.001751 
1842.019280  	0.002657 
1843.948096  	0.001112 
1845.876912  	0.000346 
1847.805728  	0.001056 
1849.734544  	0.001188 
1851.663360  	0.001157 
1853.592176  	0.001342 
1855.520992  	0.001207 
1857.449808  	0.001268 
1859.378624  	0.001113 
1861.307440  	0.001200 
1863.236256  	0.001177 
1865.165072  	0.001546 
1867.093888  	0.001316 
1869.022704  	0.000332 
1870.951520  	-0.000167 
1872.880336  	0.000985 
1874.809152  	0.001035 
1876.737968  	0.001143 
1878.666784  	0.000884 
1880.595600  	0.001227 
1882.524416  	0.000927 
1884.453232  	0.000921 
1886.382048  	0.000945 
1888.310864  	0.001243 
1890.239680  	0.000587 
1892.168496  	0.001069 
1894.097312  	0.000944 
1896.026128  	0.000747 
1897.954944  	0.000637 
1899.883760  	0.000943 
1901.812576  	0.000967 
1903.741392  	0.000868 
1905.670208  	0.000529 
1907.599024  	0.001006 
1909.527840  	0.000867 
1911.456656  	0.001030 
1913.385472  	0.000940 
1915.314288  	0.001513 
1917.243104  	0.001065 
1919.171920  	0.000499 
1921.100736  	0.000787 
1923.029552  	0.000971 
1924.958368  	0.000850 
1926.887184  	0.001227 
1928.816000  	0.000861 
1930.744816  	0.000922 
1932.673632  	0.000552 
1934.602448  	0.000951 
1936.531264  	0.000902 
1938.460080  	0.001414 
1940.388896  	0.001047 
1942.317712  	0.000510 
1944.246528  	0.000062 
1946.175344  	0.001264 
1948.104160  	0.001217 
1950.032976  	0.001242 
1951.961792  	0.001150 
1953.890608  	0.001751 
1955.819424  	0.001449 
1957.748240  	0.001827 
1959.677056  	0.000571 
1961.605872  	0.000457 
1963.534688  	0.000884 
1965.463504  	0.001594 
1967.392320  	-0.000046 
1969.321136  	0.000342 
1971.249952  	0.001358 
1973.178768  	0.003009 
1975.107584  	0.001858 
1977.036400  	0.002550 
1978.965216  	0.003100 
1980.894032  	0.002817 
1982.822848  	0.001788 
1984.751664  	0.001929 
1986.680480  	0.000982 
1988.609296  	0.001406 
1990.538112  	0.001444 
1992.466928  	0.002028 
1994.395744  	0.001481 
1996.324560  	0.001921 
1998.253376  	0.001482 
2000.182192  	0.001416 
2002.111008  	0.001246 
2004.039824  	0.002132 
2005.968640  	0.001908 
2007.897456  	0.002585 
2009.826272  	0.002157 
2011.755088  	0.002129 
2013.683904  	0.001500 
2015.612720  	0.002311 
2017.541536  	0.001785 
2019.470352  	0.002386 
2021.399168  	0.002186 
2023.327984  	0.002381 
2025.256800  	0.002201 
2027.185616  	0.002106 
2029.114432  	0.002132 
2031.043248  	0.003698 
2032.972064  	0.003783 
2034.900880  	0.003224 
2036.829696  	0.001720 
2038.758512  	0.003420 
2040.687328  	0.003368 
2042.616144  	0.003411 
2044.544960  	0.002880 
2046.473776  	0.003634 
2048.402592  	0.003171 
2050.331408  	0.002807 
2052.260224  	0.001454 
2054.189040  	0.001285 
2056.117856  	0.001438 
2058.046672  	0.002120 
2059.975488  	0.001522 
2061.904304  	0.001022 
2063.833120  	0.001185 
2065.761936  	0.001547 
2067.690752  	0.001449 
2069.619568  	0.002195 
2071.548384  	0.001908 
2073.477200  	0.001598 
2075.406016  	0.001929 
2077.334832  	0.002297 
2079.263648  	0.002117 
2081.192464  	0.002541 
2083.121280  	0.002340 
2085.050096  	0.002180 
2086.978912  	0.001874 
2088.907728  	0.002128 
2090.836544  	0.001894 
2092.765360  	0.002116 
2094.694176  	0.002231 
2096.622992  	0.002560 
2098.551808  	0.002719 
2100.480624  	0.002601 
2102.409440  	0.001694 
2104.338256  	0.001752 
2106.267072  	0.002489 
2108.195888  	0.002934 
2110.124704  	0.002417 
2112.053520  	0.002830 
2113.982336  	0.002471 
2115.911152  	0.002076 
2117.839968  	0.001967 
2119.768784  	0.002205 
2121.697600  	0.002053 
2123.626416  	0.001998 
2125.555232  	0.001960 
2127.484048  	0.002132 
2129.412864  	0.001506 
2131.341680  	0.001612 
2133.270496  	0.001587 
2135.199312  	0.002264 
2137.128128  	0.002749 
2139.056944  	0.003156 
2140.985760  	0.002713 
2142.914576  	0.002743 
2144.843392  	0.002748 
2146.772208  	0.002973 
2148.701024  	0.001555 
2150.629840  	0.002669 
2152.558656  	0.003113 
2154.487472  	0.002772 
2156.416288  	0.002149 
2158.345104  	0.003063 
2160.273920  	0.005559 
2162.202736  	0.006796 
2164.131552  	0.004739 
2166.060368  	0.004610 
2167.989184  	0.005557 
2169.918000  	0.006881 
2171.846816  	0.005861 
2173.775632  	0.005693 
2175.704448  	0.005632 
2177.633264  	0.005305 
2179.562080  	0.004164 
2181.490896  	0.004337 
2183.419712  	0.003695 
2185.348528  	0.003958 
2187.277344  	0.004068 
2189.206160  	0.003775 
2191.134976  	0.003165 
2193.063792  	0.003757 
2194.992608  	0.003785 
2196.921424  	0.003716 
2198.850240  	0.003363 
2200.779056  	0.003676 
2202.707872  	0.003395 
2204.636688  	0.003146 
2206.565504  	0.003003 
2208.494320  	0.003031 
2210.423136  	0.002709 
2212.351952  	0.003107 
2214.280768  	0.002789 
2216.209584  	0.003221 
2218.138400  	0.002637 
2220.067216  	0.002284 
2221.996032  	0.002289 
2223.924848  	0.002584 
2225.853664  	0.002904 
2227.782480  	0.003280 
2229.711296  	0.002377 
2231.640112  	0.001652 
2233.568928  	0.001596 
2235.497744  	0.002040 
2237.426560  	0.001865 
2239.355376  	0.002053 
2241.284192  	0.002009 
2243.213008  	0.002318 
2245.141824  	0.002158 
2247.070640  	0.002438 
2248.999456  	0.002371 
2250.928272  	0.002161 
2252.857088  	0.001991 
2254.785904  	0.002020 
2256.714720  	0.001602 
2258.643536  	0.001169 
2260.572352  	0.000965 
2262.501168  	0.001280 
2264.429984  	0.001210 
2266.358800  	0.001368 
2268.287616  	0.001749 
2270.216432  	0.001881 
2272.145248  	0.001387 
2274.074064  	0.001449 
2276.002880  	0.001799 
2277.931696  	0.002261 
2279.860512  	0.002096 
2281.789328  	0.002045 
2283.718144  	0.001877 
2285.646960  	0.002138 
2287.575776  	0.002333 
2289.504592  	0.002067 
2291.433408  	0.001856 
2293.362224  	0.002108 
2295.291040  	0.002282 
2297.219856  	0.002624 
2299.148672  	0.002643 
2301.077488  	0.002711 
2303.006304  	0.002736 
2304.935120  	0.002850 
2306.863936  	0.002962 
2308.792752  	0.003015 
2310.721568  	0.002814 
2312.650384  	0.002748 
2314.579200  	0.002655 
2316.508016  	0.002436 
2318.436832  	0.001779 
2320.365648  	0.001172 
2322.294464  	0.000391 
2324.223280  	-0.000214 
2326.152096  	-0.000996 
2328.080912  	-0.002007 
2330.009728  	-0.003259 
2331.938544  	-0.004171 
2333.867360  	-0.004762 
2335.796176  	-0.005246 
2337.724992  	-0.005728 
2339.653808  	-0.005547 
2341.582624  	-0.005853 
2343.511440  	-0.006047 
2345.440256  	-0.005735 
2347.369072  	-0.003167 
2349.297888  	-0.000283 
2351.226704  	-0.000561 
2353.155520  	-0.003377 
2355.084336  	-0.005552 
2357.013152  	-0.007392 
2358.941968  	-0.008608 
2360.870784  	-0.010137 
2362.799600  	-0.009887 
2364.728416  	-0.009425 
2366.657232  	-0.008225 
2368.586048  	-0.006395 
2370.514864  	-0.005014 
2372.443680  	-0.003646 
2374.372496  	-0.001927 
2376.301312  	-0.000641 
2378.230128  	0.000380 
2380.158944  	0.000858 
2382.087760  	0.001274 
2384.016576  	0.001382 
2385.945392  	0.001251 
2387.874208  	0.001165 
2389.803024  	0.001164 
2391.731840  	0.000887 
2393.660656  	0.000795 
2395.589472  	0.000976 
2397.518288  	0.001175 
2399.447104  	0.001174 
2401.375920  	0.001220 
2403.304736  	0.000997 
2405.233552  	0.001015 
2407.162368  	0.001073 
2409.091184  	0.001095 
2411.020000  	0.001073 
2412.948816  	0.001119 
2414.877632  	0.001124 
2416.806448  	0.001316 
2418.735264  	0.001311 
2420.664080  	0.001211 
2422.592896  	0.001107 
2424.521712  	0.001395 
2426.450528  	0.001309 
2428.379344  	0.001201 
2430.308160  	0.001335 
2432.236976  	0.001590 
2434.165792  	0.001632 
2436.094608  	0.001557 
2438.023424  	0.001432 
2439.952240  	0.001586 
2441.881056  	0.001591 
2443.809872  	0.001487 
2445.738688  	0.001579 
2447.667504  	0.001843 
2449.596320  	0.001903 
2451.525136  	0.002099 
2453.453952  	0.002109 
2455.382768  	0.001938 
2457.311584  	0.001619 
2459.240400  	0.001617 
2461.169216  	0.001612 
2463.098032  	0.001595 
2465.026848  	0.001658 
2466.955664  	0.001771 
2468.884480  	0.001658 
2470.813296  	0.001583 
2472.742112  	0.001721 
2474.670928  	0.001662 
2476.599744  	0.001643 
2478.528560  	0.001920 
2480.457376  	0.001854 
2482.386192  	0.001870 
2484.315008  	0.001868 
2486.243824  	0.001751 
2488.172640  	0.001689 
2490.101456  	0.001916 
2492.030272  	0.002158 
2493.959088  	0.002127 
2495.887904  	0.002062 
2497.816720  	0.002257 
2499.745536  	0.002450 
2501.674352  	0.002640 
2503.603168  	0.002787 
2505.531984  	0.002717 
2507.460800  	0.002477 
2509.389616  	0.002695 
2511.318432  	0.002849 
2513.247248  	0.002965 
2515.176064  	0.002939 
2517.104880  	0.002805 
2519.033696  	0.002647 
2520.962512  	0.003085 
2522.891328  	0.003295 
2524.820144  	0.003068 
2526.748960  	0.003037 
2528.677776  	0.003349 
2530.606592  	0.003394 
2532.535408  	0.003204 
2534.464224  	0.003196 
2536.393040  	0.003406 
2538.321856  	0.003633 
2540.250672  	0.003613 
2542.179488  	0.003526 
2544.108304  	0.003536 
2546.037120  	0.003507 
2547.965936  	0.003664 
2549.894752  	0.003716 
2551.823568  	0.003647 
2553.752384  	0.003787 
2555.681200  	0.004004 
2557.610016  	0.003974 
2559.538832  	0.004117 
2561.467648  	0.004385 
2563.396464  	0.004535 
2565.325280  	0.004593 
2567.254096  	0.004560 
2569.182912  	0.004469 
2571.111728  	0.004566 
2573.040544  	0.004531 
2574.969360  	0.004706 
2576.898176  	0.004947 
2578.826992  	0.004799 
2580.755808  	0.004769 
2582.684624  	0.005142 
2584.613440  	0.005301 
2586.542256  	0.005296 
2588.471072  	0.005326 
2590.399888  	0.005346 
2592.328704  	0.005349 
2594.257520  	0.005271 
2596.186336  	0.005366 
2598.115152  	0.005551 
2600.043968  	0.005574 
2601.972784  	0.005797 
2603.901600  	0.005796 
2605.830416  	0.005733 
2607.759232  	0.005771 
2609.688048  	0.005935 
2611.616864  	0.006198 
2613.545680  	0.006406 
2615.474496  	0.006450 
2617.403312  	0.006451 
2619.332128  	0.006555 
2621.260944  	0.006721 
2623.189760  	0.006672 
2625.118576  	0.006724 
2627.047392  	0.006774 
2628.976208  	0.006923 
2630.905024  	0.007042 
2632.833840  	0.007116 
2634.762656  	0.007273 
2636.691472  	0.007332 
2638.620288  	0.007357 
2640.549104  	0.007464 
2642.477920  	0.007531 
2644.406736  	0.007727 
2646.335552  	0.007839 
2648.264368  	0.007956 
2650.193184  	0.008085 
2652.122000  	0.008224 
2654.050816  	0.008365 
2655.979632  	0.008544 
2657.908448  	0.008688 
2659.837264  	0.008748 
2661.766080  	0.008713 
2663.694896  	0.008808 
2665.623712  	0.008875 
2667.552528  	0.009008 
2669.481344  	0.009145 
2671.410160  	0.009245 
2673.338976  	0.009398 
2675.267792  	0.009555 
2677.196608  	0.009673 
2679.125424  	0.009777 
2681.054240  	0.009919 
2682.983056  	0.010136 
2684.911872  	0.010119 
2686.840688  	0.010176 
2688.769504  	0.010217 
2690.698320  	0.010208 
2692.627136  	0.010273 
2694.555952  	0.010424 
2696.484768  	0.010566 
2698.413584  	0.010679 
2700.342400  	0.010783 
2702.271216  	0.011028 
2704.200032  	0.011222 
2706.128848  	0.011262 
2708.057664  	0.011272 
2709.986480  	0.011365 
2711.915296  	0.011473 
2713.844112  	0.011682 
2715.772928  	0.011722 
2717.701744  	0.011798 
2719.630560  	0.012124 
2721.559376  	0.012269 
2723.488192  	0.012260 
2725.417008  	0.012362 
2727.345824  	0.012399 
2729.274640  	0.012535 
2731.203456  	0.012735 
2733.132272  	0.012936 
2735.061088  	0.013060 
2736.989904  	0.013163 
2738.918720  	0.013211 
2740.847536  	0.013269 
2742.776352  	0.013295 
2744.705168  	0.013389 
2746.633984  	0.013488 
2748.562800  	0.013530 
2750.491616  	0.013624 
2752.420432  	0.013782 
2754.349248  	0.013707 
2756.278064  	0.013701 
2758.206880  	0.013661 
2760.135696  	0.013630 
2762.064512  	0.013741 
2763.993328  	0.013799 
2765.922144  	0.013822 
2767.850960  	0.013947 
2769.779776  	0.013950 
2771.708592  	0.013949 
2773.637408  	0.013862 
2775.566224  	0.013834 
2777.495040  	0.013780 
2779.423856  	0.013824 
2781.352672  	0.013931 
2783.281488  	0.013997 
2785.210304  	0.014012 
2787.139120  	0.014025 
2789.067936  	0.014055 
2790.996752  	0.014130 
2792.925568  	0.013989 
2794.854384  	0.013875 
2796.783200  	0.013871 
2798.712016  	0.013874 
2800.640832  	0.013879 
2802.569648  	0.013990 
2804.498464  	0.014040 
2806.427280  	0.013945 
2808.356096  	0.013820 
2810.284912  	0.013943 
2812.213728  	0.014056 
2814.142544  	0.014056 
2816.071360  	0.013994 
2818.000176  	0.013834 
2819.928992  	0.013826 
2821.857808  	0.013866 
2823.786624  	0.013720 
2825.715440  	0.013702 
2827.644256  	0.013558 
2829.573072  	0.013330 
2831.501888  	0.013066 
2833.430704  	0.012770 
2835.359520  	0.012466 
2837.288336  	0.012308 
2839.217152  	0.012034 
2841.145968  	0.011739 
2843.074784  	0.011416 
2845.003600  	0.011063 
2846.932416  	0.010832 
2848.861232  	0.010625 
2850.790048  	0.010278 
2852.718864  	0.009739 
2854.647680  	0.009065 
2856.576496  	0.008337 
2858.505312  	0.007653 
2860.434128  	0.007082 
2862.362944  	0.006300 
2864.291760  	0.005457 
2866.220576  	0.004796 
2868.149392  	0.004580 
2870.078208  	0.004442 
2872.007024  	0.004340 
2873.935840  	0.004420 
2875.864656  	0.004480 
2877.793472  	0.004379 
2879.722288  	0.004100 
2881.651104  	0.003713 
2883.579920  	0.003567 
2885.508736  	0.003780 
2887.437552  	0.004052 
2889.366368  	0.004093 
2891.295184  	0.003930 
2893.224000  	0.003720 
2895.152816  	0.003696 
2897.081632  	0.003441 
2899.010448  	0.001777 
2900.939264  	0.000316 
2902.868080  	0.001674 
2904.796896  	0.003008 
2906.725712  	0.003538 
2908.654528  	0.004108 
2910.583344  	0.004603 
2912.512160  	0.005403 
2914.440976  	0.006774 
2916.369792  	0.007808 
2918.298608  	0.008429 
2920.227424  	0.008889 
2922.156240  	0.009417 
2924.085056  	0.010119 
2926.013872  	0.010915 
2927.942688  	0.011774 
2929.871504  	0.012695 
2931.800320  	0.013591 
2933.729136  	0.014385 
2935.657952  	0.014956 
2937.586768  	0.015557 
2939.515584  	0.016097 
2941.444400  	0.016260 
2943.373216  	0.016237 
2945.302032  	0.016484 
2947.230848  	0.016726 
2949.159664  	0.016502 
2951.088480  	0.015943 
2953.017296  	0.015399 
2954.946112  	0.014769 
2956.874928  	0.013926 
2958.803744  	0.013089 
2960.732560  	0.012592 
2962.661376  	0.012017 
2964.590192  	0.011095 
2966.519008  	0.009790 
2968.447824  	0.008741 
2970.376640  	0.007907 
2972.305456  	0.007312 
2974.234272  	0.007503 
2976.163088  	0.007817 
2978.091904  	0.007772 
2980.020720  	0.007789 
2981.949536  	0.008101 
2983.878352  	0.007900 
2985.807168  	0.006887 
2987.735984  	0.005929 
2989.664800  	0.006292 
2991.593616  	0.009439 
2993.522432  	0.011531 
2995.451248  	0.012188 
2997.380064  	0.013101 
2999.308880  	0.014292 
3001.237696  	0.015569 
3003.166512  	0.017068 
3005.095328  	0.018524 
3007.024144  	0.019938 
3008.952960  	0.021428 
3010.881776  	0.022937 
3012.810592  	0.024200 
3014.739408  	0.025469 
3016.668224  	0.026737 
3018.597040  	0.028001 
3020.525856  	0.029198 
3022.454672  	0.030254 
3024.383488  	0.031313 
3026.312304  	0.032414 
3028.241120  	0.033542 
3030.169936  	0.034409 
3032.098752  	0.035050 
3034.027568  	0.035851 
3035.956384  	0.036751 
3037.885200  	0.037710 
3039.814016  	0.038334 
3041.742832  	0.038872 
3043.671648  	0.039464 
3045.600464  	0.040122 
3047.529280  	0.040704 
3049.458096  	0.041312 
3051.386912  	0.042066 
3053.315728  	0.042783 
3055.244544  	0.043353 
3057.173360  	0.043871 
3059.102176  	0.044354 
3061.030992  	0.045039 
3062.959808  	0.045735 
3064.888624  	0.046382 
3066.817440  	0.047110 
3068.746256  	0.047950 
3070.675072  	0.048813 
3072.603888  	0.049494 
3074.532704  	0.050058 
3076.461520  	0.050742 
3078.390336  	0.051462 
3080.319152  	0.052144 
3082.247968  	0.052927 
3084.176784  	0.053558 
3086.105600  	0.054315 
3088.034416  	0.055057 
3089.963232  	0.055877 
3091.892048  	0.056483 
3093.820864  	0.057017 
3095.749680  	0.057699 
3097.678496  	0.058684 
3099.607312  	0.059560 
3101.536128  	0.060451 
3103.464944  	0.061355 
3105.393760  	0.061893 
3107.322576  	0.062436 
3109.251392  	0.063207 
3111.180208  	0.064082 
3113.109024  	0.064836 
3115.037840  	0.065466 
3116.966656  	0.066007 
3118.895472  	0.066424 
3120.824288  	0.067076 
3122.753104  	0.067779 
3124.681920  	0.068229 
3126.610736  	0.068560 
3128.539552  	0.069279 
3130.468368  	0.070172 
3132.397184  	0.070685 
3134.326000  	0.071158 
3136.254816  	0.071645 
3138.183632  	0.072137 
3140.112448  	0.072637 
3142.041264  	0.073324 
3143.970080  	0.073876 
3145.898896  	0.074420 
3147.827712  	0.074920 
3149.756528  	0.075488 
3151.685344  	0.075989 
3153.614160  	0.076460 
3155.542976  	0.077087 
3157.471792  	0.077721 
3159.400608  	0.078389 
3161.329424  	0.078943 
3163.258240  	0.079217 
3165.187056  	0.079781 
3167.115872  	0.080420 
3169.044688  	0.080810 
3170.973504  	0.081245 
3172.902320  	0.081617 
3174.831136  	0.081963 
3176.759952  	0.082435 
3178.688768  	0.082732 
3180.617584  	0.083077 
3182.546400  	0.083441 
3184.475216  	0.083634 
3186.404032  	0.083558 
3188.332848  	0.083722 
3190.261664  	0.083930 
3192.190480  	0.084111 
3194.119296  	0.084085 
3196.048112  	0.084264 
3197.976928  	0.084219 
3199.905744  	0.083947 
3201.834560  	0.083863 
3203.763376  	0.083826 
3205.692192  	0.083825 
3207.621008  	0.083806 
3209.549824  	0.083719 
3211.478640  	0.083749 
3213.407456  	0.083726 
3215.336272  	0.083477 
3217.265088  	0.083368 
3219.193904  	0.083224 
3221.122720  	0.082946 
3223.051536  	0.082838 
3224.980352  	0.082737 
3226.909168  	0.082612 
3228.837984  	0.082360 
3230.766800  	0.082255 
3232.695616  	0.082195 
3234.624432  	0.081998 
3236.553248  	0.081873 
3238.482064  	0.081956 
3240.410880  	0.082065 
3242.339696  	0.082162 
3244.268512  	0.082027 
3246.197328  	0.082030 
3248.126144  	0.082487 
3250.054960  	0.082593 
3251.983776  	0.082559 
3253.912592  	0.082612 
3255.841408  	0.082618 
3257.770224  	0.082873 
3259.699040  	0.083198 
3261.627856  	0.083522 
3263.556672  	0.083735 
3265.485488  	0.083783 
3267.414304  	0.083874 
3269.343120  	0.084279 
3271.271936  	0.084582 
3273.200752  	0.084588 
3275.129568  	0.084597 
3277.058384  	0.084793 
3278.987200  	0.085091 
3280.916016  	0.085327 
3282.844832  	0.085456 
3284.773648  	0.085632 
3286.702464  	0.085812 
3288.631280  	0.086091 
3290.560096  	0.086409 
3292.488912  	0.086668 
3294.417728  	0.086900 
3296.346544  	0.087214 
3298.275360  	0.087485 
3300.204176  	0.087837 
3302.132992  	0.088080 
3304.061808  	0.088313 
3305.990624  	0.088748 
3307.919440  	0.089032 
3309.848256  	0.089187 
3311.777072  	0.089606 
3313.705888  	0.089989 
3315.634704  	0.090282 
3317.563520  	0.090410 
3319.492336  	0.090617 
3321.421152  	0.090713 
3323.349968  	0.090863 
3325.278784  	0.091079 
3327.207600  	0.091217 
3329.136416  	0.091280 
3331.065232  	0.091344 
3332.994048  	0.091461 
3334.922864  	0.091645 
3336.851680  	0.091456 
3338.780496  	0.091245 
3340.709312  	0.091175 
3342.638128  	0.091162 
3344.566944  	0.090838 
3346.495760  	0.090507 
3348.424576  	0.090256 
3350.353392  	0.090011 
3352.282208  	0.089665 
3354.211024  	0.089233 
3356.139840  	0.088924 
3358.068656  	0.088764 
3359.997472  	0.088446 
3361.926288  	0.087966 
3363.855104  	0.087565 
3365.783920  	0.087250 
3367.712736  	0.086960 
3369.641552  	0.086666 
3371.570368  	0.086309 
3373.499184  	0.085935 
3375.428000  	0.085343 
3377.356816  	0.084828 
3379.285632  	0.084710 
3381.214448  	0.084521 
3383.143264  	0.083971 
3385.072080  	0.083538 
3387.000896  	0.083074 
3388.929712  	0.082742 
3390.858528  	0.082491 
3392.787344  	0.082141 
3394.716160  	0.081725 
3396.644976  	0.081274 
3398.573792  	0.080673 
3400.502608  	0.080250 
3402.431424  	0.079868 
3404.360240  	0.079563 
3406.289056  	0.079056 
3408.217872  	0.078621 
3410.146688  	0.078066 
3412.075504  	0.077553 
3414.004320  	0.077081 
3415.933136  	0.076811 
3417.861952  	0.076392 
3419.790768  	0.075857 
3421.719584  	0.075237 
3423.648400  	0.074776 
3425.577216  	0.074279 
3427.506032  	0.073810 
3429.434848  	0.073266 
3431.363664  	0.072747 
3433.292480  	0.072245 
3435.221296  	0.071565 
3437.150112  	0.070937 
3439.078928  	0.070498 
3441.007744  	0.069964 
3442.936560  	0.069516 
3444.865376  	0.069286 
3446.794192  	0.068406 
3448.723008  	0.067334 
3450.651824  	0.066901 
3452.580640  	0.066345 
3454.509456  	0.065912 
3456.438272  	0.065279 
3458.367088  	0.064725 
3460.295904  	0.064221 
3462.224720  	0.063281 
3464.153536  	0.062353 
3466.082352  	0.061770 
3468.011168  	0.060877 
3469.939984  	0.060325 
3471.868800  	0.059942 
3473.797616  	0.059153 
3475.726432  	0.058235 
3477.655248  	0.057528 
3479.584064  	0.057085 
3481.512880  	0.056242 
3483.441696  	0.055131 
3485.370512  	0.054564 
3487.299328  	0.053684 
3489.228144  	0.052987 
3491.156960  	0.052359 
3493.085776  	0.051688 
3495.014592  	0.050871 
3496.943408  	0.050118 
3498.872224  	0.049618 
3500.801040  	0.049360 
3502.729856  	0.048347 
3504.658672  	0.047273 
3506.587488  	0.047260 
3508.516304  	0.046953 
3510.445120  	0.045783 
3512.373936  	0.045112 
3514.302752  	0.044578 
3516.231568  	0.044242 
3518.160384  	0.043666 
3520.089200  	0.043067 
3522.018016  	0.042836 
3523.946832  	0.042173 
3525.875648  	0.041445 
3527.804464  	0.040449 
3529.733280  	0.039642 
3531.662096  	0.039165 
3533.590912  	0.038904 
3535.519728  	0.038591 
3537.448544  	0.037758 
3539.377360  	0.037155 
3541.306176  	0.036898 
3543.234992  	0.036867 
3545.163808  	0.036389 
3547.092624  	0.035126 
3549.021440  	0.034336 
3550.950256  	0.034133 
3552.879072  	0.032844 
3554.807888  	0.032299 
3556.736704  	0.032253 
3558.665520  	0.032031 
3560.594336  	0.031431 
3562.523152  	0.030827 
3564.451968  	0.030986 
3566.380784  	0.029957 
3568.309600  	0.026922 
3570.238416  	0.026822 
3572.167232  	0.027404 
3574.096048  	0.027010 
3576.024864  	0.026250 
3577.953680  	0.025795 
3579.882496  	0.025039 
3581.811312  	0.024391 
3583.740128  	0.024320 
3585.668944  	0.024526 
3587.597760  	0.021799 
3589.526576  	0.019802 
3591.455392  	0.020780 
3593.384208  	0.020765 
3595.313024  	0.019182 
3597.241840  	0.018094 
3599.170656  	0.017347 
3601.099472  	0.016117 
3603.028288  	0.015962 
3604.957104  	0.016783 
3606.885920  	0.016105 
3608.814736  	0.013696 
3610.743552  	0.013204 
3612.672368  	0.012526 
3614.601184  	0.010838 
3616.530000  	0.011647 
3618.458816  	0.010108 
3620.387632  	0.007102 
3622.316448  	0.007510 
3624.245264  	0.008468 
3626.174080  	0.009244 
3628.102896  	0.006752 
3630.031712  	0.000176 
3631.960528  	0.002675 
3633.889344  	0.003068 
3635.818160  	0.002277 
3637.746976  	0.001832 
3639.675792  	0.001237 
3641.604608  	0.000980 
3643.533424  	0.000878 
3645.462240  	0.001579 
3647.391056  	-0.000695 
3649.319872  	-0.006470 
3651.248688  	-0.010253 
3653.177504  	-0.006500 
3655.106320  	-0.004961 
3657.035136  	-0.008952 
3658.963952  	-0.008802 
3660.892768  	-0.008100 
3662.821584  	-0.008149 
3664.750400  	-0.008078 
3666.679216  	-0.007280 
3668.608032  	-0.008136 
3670.536848  	-0.012805 
3672.465664  	-0.010694 
3674.394480  	-0.009745 
3676.323296  	-0.017293 
3678.252112  	-0.013891 
3680.180928  	-0.011699 
3682.109744  	-0.010736 
3684.038560  	-0.010105 
3685.967376  	-0.008879 
3687.896192  	-0.010598 
3689.825008  	-0.015129 
3691.753824  	-0.014920 
3693.682640  	-0.012490 
3695.611456  	-0.010847 
3697.540272  	-0.010103 
3699.469088  	-0.008677 
3701.397904  	-0.009426 
3703.326720  	-0.010073 
3705.255536  	-0.008229 
3707.184352  	-0.006884 
3709.113168  	-0.007265 
3711.041984  	-0.010077 
3712.970800  	-0.011714 
3714.899616  	-0.009042 
3716.828432  	-0.006768 
3718.757248  	-0.006748 
3720.686064  	-0.007104 
3722.614880  	-0.007988 
3724.543696  	-0.007725 
3726.472512  	-0.008208 
3728.401328  	-0.007874 
3730.330144  	-0.006019 
3732.258960  	-0.007214 
3734.187776  	-0.008124 
3736.116592  	-0.011303 
3738.045408  	-0.010989 
3739.974224  	-0.007745 
3741.903040  	-0.004942 
3743.831856  	-0.006655 
3745.760672  	-0.012312 
3747.689488  	-0.007847 
3749.618304  	-0.008845 
3751.547120  	-0.013042 
3753.475936  	-0.012522 
3755.404752  	-0.008519 
3757.333568  	-0.007448 
3759.262384  	-0.008765 
3761.191200  	-0.009429 
3763.120016  	-0.006743 
3765.048832  	-0.006938 
3766.977648  	-0.007517 
3768.906464  	-0.007786 
3770.835280  	-0.009885 
3772.764096  	-0.008431 
3774.692912  	-0.006893 
3776.621728  	-0.006075 
3778.550544  	-0.006969 
3780.479360  	-0.009418 
3782.408176  	-0.007764 
3784.336992  	-0.007479 
3786.265808  	-0.007975 
3788.194624  	-0.007483 
3790.123440  	-0.007316 
3792.052256  	-0.007096 
3793.981072  	-0.006070 
3795.909888  	-0.007118 
3797.838704  	-0.007977 
3799.767520  	-0.006315 
3801.696336  	-0.011277 
3803.625152  	-0.011096 
3805.553968  	-0.007675 
3807.482784  	-0.010740 
3809.411600  	-0.009484 
3811.340416  	-0.007055 
3813.269232  	-0.005278 
3815.198048  	-0.006768 
3817.126864  	-0.010371 
3819.055680  	-0.007162 
3820.984496  	-0.010474 
3822.913312  	-0.012191 
3824.842128  	-0.007935 
3826.770944  	-0.008230 
3828.699760  	-0.007701 
3830.628576  	-0.006875 
3832.557392  	-0.007838 
3834.486208  	-0.007128 
3836.415024  	-0.007475 
3838.343840  	-0.010315 
3840.272656  	-0.011069 
3842.201472  	-0.009388 
3844.130288  	-0.009330 
3846.059104  	-0.008276 
3847.987920  	-0.006276 
3849.916736  	-0.004775 
3851.845552  	-0.005017 
3853.774368  	-0.013955 
3855.703184  	-0.013935 
3857.632000  	-0.009641 
3859.560816  	-0.007048 
3861.489632  	-0.006610 
3863.418448  	-0.007689 
3865.347264  	-0.009259 
3867.276080  	-0.006800 
3869.204896  	-0.006981 
3871.133712  	-0.010310 
3873.062528  	-0.008310 
3874.991344  	-0.009542 
3876.920160  	-0.007248 
3878.848976  	-0.005444 
3880.777792  	-0.008031 
3882.706608  	-0.007342 
3884.635424  	-0.006359 
3886.564240  	-0.009690 
3888.493056  	-0.007358 
3890.421872  	-0.006641 
3892.350688  	-0.009343 
3894.279504  	-0.008334 
3896.208320  	-0.005999 
3898.137136  	-0.005249 
3900.065952  	-0.006466 
3901.994768  	-0.006813 
3903.923584  	-0.008276 
3905.852400  	-0.009546 
3907.781216  	-0.008176 
3909.710032  	-0.007082 
3911.638848  	-0.006818 
3913.567664  	-0.006279 
3915.496480  	-0.005866 
3917.425296  	-0.007102 
3919.354112  	-0.007759 
3921.282928  	-0.007411 
3923.211744  	-0.006448 
3925.140560  	-0.007146 
3927.069376  	-0.007039 
3928.998192  	-0.006410 
3930.927008  	-0.006562 
3932.855824  	-0.007271 
3934.784640  	-0.007397 
3936.713456  	-0.006905 
3938.642272  	-0.006570 
3940.571088  	-0.005871 
3942.499904  	-0.006494 
3944.428720  	-0.007133 
3946.357536  	-0.006242 
3948.286352  	-0.006308 
3950.215168  	-0.007056 
3952.143984  	-0.007288 
3954.072800  	-0.006928 
3956.001616  	-0.006653 
3957.930432  	-0.006669 
3959.859248  	-0.006575 
3961.788064  	-0.006800 
3963.716880  	-0.007119 
3965.645696  	-0.007019 
3967.574512  	-0.006893 
3969.503328  	-0.006800 
3971.432144  	-0.006809 
3973.360960  	-0.006897 
3975.289776  	-0.007185 
3977.218592  	-0.007117 
3979.147408  	-0.007006 
3981.076224  	-0.007008 
3983.005040  	-0.006942 
3984.933856  	-0.007052 
3986.862672  	-0.007067 
3988.791488  	-0.006739 
3990.720304  	-0.006712 
3992.649120  	-0.006847 
3994.577936  	-0.007033 
3996.506752  	-0.006980 
3998.435568  	-0.006830 
4000.364384  	-0.006814 