##TITLE=No Description
##DATA TYPE=INFRARED SPECTRUM
##XUNITS=1/CM
##YUNITS=Abs
399.264912  	0.514098 
401.193728  	0.522041 
403.122544  	0.537743 
405.051360  	0.553922 
406.980176  	0.552854 
408.908992  	0.521197 
410.837808  	0.525336 
412.766624  	0.543033 
414.695440  	0.541975 
416.624256  	0.530481 
418.553072  	0.532344 
420.481888  	0.519871 
422.410704  	0.521016 
424.339520  	0.515404 
426.268336  	0.513273 
428.197152  	0.510149 
430.125968  	0.514725 
432.054784  	0.512320 
433.983600  	0.508697 
435.912416  	0.507267 
437.841232  	0.509549 
439.770048  	0.502362 
441.698864  	0.504198 
443.627680  	0.501643 
445.556496  	0.494933 
447.485312  	0.489721 
449.414128  	0.499339 
451.342944  	0.502981 
453.271760  	0.499283 
455.200576  	0.493558 
457.129392  	0.501311 
459.058208  	0.504359 
460.987024  	0.508385 
462.915840  	0.506033 
464.844656  	0.510448 
466.773472  	0.514060 
468.702288  	0.516998 
470.631104  	0.513044 
472.559920  	0.510270 
474.488736  	0.513662 
476.417552  	0.516273 
478.346368  	0.510209 
480.275184  	0.514484 
482.204000  	0.516291 
484.132816  	0.520519 
486.061632  	0.519431 
487.990448  	0.517342 
489.919264  	0.514156 
491.848080  	0.514658 
493.776896  	0.512243 
495.705712  	0.508429 
497.634528  	0.504485 
499.563344  	0.505649 
501.492160  	0.500261 
503.420976  	0.495915 
505.349792  	0.496854 
507.278608  	0.499707 
509.207424  	0.501108 
511.136240  	0.505714 
513.065056  	0.504945 
514.993872  	0.505853 
516.922688  	0.509720 
518.851504  	0.515878 
520.780320  	0.516180 
522.709136  	0.517418 
524.637952  	0.514039 
526.566768  	0.513103 
528.495584  	0.509971 
530.424400  	0.503944 
532.353216  	0.497131 
534.282032  	0.492488 
536.210848  	0.485509 
538.139664  	0.478457 
540.068480  	0.470984 
541.997296  	0.464912 
543.926112  	0.460178 
545.854928  	0.458085 
547.783744  	0.454768 
549.712560  	0.452050 
551.641376  	0.448862 
553.570192  	0.446306 
555.499008  	0.442474 
557.427824  	0.438404 
559.356640  	0.434526 
561.285456  	0.432960 
563.214272  	0.427649 
565.143088  	0.422640 
567.071904  	0.417427 
569.000720  	0.412394 
570.929536  	0.407739 
572.858352  	0.405830 
574.787168  	0.403002 
576.715984  	0.401121 
578.644800  	0.397359 
580.573616  	0.392389 
582.502432  	0.386109 
584.431248  	0.379865 
586.360064  	0.374251 
588.288880  	0.371061 
590.217696  	0.368929 
592.146512  	0.367713 
594.075328  	0.366401 
596.004144  	0.363620 
597.932960  	0.361662 
599.861776  	0.361619 
601.790592  	0.361340 
603.719408  	0.359988 
605.648224  	0.358131 
607.577040  	0.357878 
609.505856  	0.357349 
611.434672  	0.356570 
613.363488  	0.354638 
615.292304  	0.353458 
617.221120  	0.351750 
619.149936  	0.351380 
621.078752  	0.350245 
623.007568  	0.349748 
624.936384  	0.349571 
626.865200  	0.349083 
628.794016  	0.348995 
630.722832  	0.350000 
632.651648  	0.351150 
634.580464  	0.351816 
636.509280  	0.352604 
638.438096  	0.352862 
640.366912  	0.352998 
642.295728  	0.352251 
644.224544  	0.348974 
646.153360  	0.346043 
648.082176  	0.341914 
650.010992  	0.338213 
651.939808  	0.333577 
653.868624  	0.329844 
655.797440  	0.325328 
657.726256  	0.321192 
659.655072  	0.316936 
661.583888  	0.312624 
663.512704  	0.307838 
665.441520  	0.301901 
667.370336  	0.295826 
669.299152  	0.290881 
671.227968  	0.286570 
673.156784  	0.282670 
675.085600  	0.279561 
677.014416  	0.277172 
678.943232  	0.275034 
680.872048  	0.273693 
682.800864  	0.272251 
684.729680  	0.271332 
686.658496  	0.270261 
688.587312  	0.269078 
690.516128  	0.268322 
692.444944  	0.267724 
694.373760  	0.267123 
696.302576  	0.266702 
698.231392  	0.264831 
700.160208  	0.262648 
702.089024  	0.260033 
704.017840  	0.257584 
705.946656  	0.255077 
707.875472  	0.253257 
709.804288  	0.251205 
711.733104  	0.249430 
713.661920  	0.247916 
715.590736  	0.247659 
717.519552  	0.248199 
719.448368  	0.249171 
721.377184  	0.251606 
723.306000  	0.254096 
725.234816  	0.256037 
727.163632  	0.255631 
729.092448  	0.252474 
731.021264  	0.247909 
732.950080  	0.243377 
734.878896  	0.239172 
736.807712  	0.235453 
738.736528  	0.232959 
740.665344  	0.230649 
742.594160  	0.229583 
744.522976  	0.228098 
746.451792  	0.227148 
748.380608  	0.226245 
750.309424  	0.225714 
752.238240  	0.225476 
754.167056  	0.225555 
756.095872  	0.225363 
758.024688  	0.224609 
759.953504  	0.225184 
761.882320  	0.226994 
763.811136  	0.228852 
765.739952  	0.227585 
767.668768  	0.223664 
769.597584  	0.220870 
771.526400  	0.221154 
773.455216  	0.225059 
775.384032  	0.232257 
777.312848  	0.241877 
779.241664  	0.248288 
781.170480  	0.247405 
783.099296  	0.240217 
785.028112  	0.232074 
786.956928  	0.225099 
788.885744  	0.219451 
790.814560  	0.215149 
792.743376  	0.213186 
794.672192  	0.213026 
796.601008  	0.211863 
798.529824  	0.207879 
800.458640  	0.203150 
802.387456  	0.199687 
804.316272  	0.198292 
806.245088  	0.197800 
808.173904  	0.197941 
810.102720  	0.198635 
812.031536  	0.199605 
813.960352  	0.201227 
815.889168  	0.203520 
817.817984  	0.206270 
819.746800  	0.208783 
821.675616  	0.211131 
823.604432  	0.213510 
825.533248  	0.215885 
827.462064  	0.217632 
829.390880  	0.218340 
831.319696  	0.218703 
833.248512  	0.217600 
835.177328  	0.215656 
837.106144  	0.211965 
839.034960  	0.208095 
840.963776  	0.203251 
842.892592  	0.197870 
844.821408  	0.192489 
846.750224  	0.187728 
848.679040  	0.184325 
850.607856  	0.181923 
852.536672  	0.180726 
854.465488  	0.179884 
856.394304  	0.179731 
858.323120  	0.178958 
860.251936  	0.177740 
862.180752  	0.176214 
864.109568  	0.174308 
866.038384  	0.172201 
867.967200  	0.169930 
869.896016  	0.168541 
871.824832  	0.167552 
873.753648  	0.167805 
875.682464  	0.169213 
877.611280  	0.172298 
879.540096  	0.176587 
881.468912  	0.182060 
883.397728  	0.187450 
885.326544  	0.191450 
887.255360  	0.194285 
889.184176  	0.195321 
891.112992  	0.194766 
893.041808  	0.192771 
894.970624  	0.189076 
896.899440  	0.183876 
898.828256  	0.177456 
900.757072  	0.170859 
902.685888  	0.165270 
904.614704  	0.162883 
906.543520  	0.163526 
908.472336  	0.166790 
910.401152  	0.171550 
912.329968  	0.176764 
914.258784  	0.181792 
916.187600  	0.186302 
918.116416  	0.190302 
920.045232  	0.193424 
921.974048  	0.195547 
923.902864  	0.197548 
925.831680  	0.199397 
927.760496  	0.201709 
929.689312  	0.204366 
931.618128  	0.207229 
933.546944  	0.209305 
935.475760  	0.210242 
937.404576  	0.209991 
939.333392  	0.209028 
941.262208  	0.208667 
943.191024  	0.210629 
945.119840  	0.216171 
947.048656  	0.225618 
948.977472  	0.239846 
950.906288  	0.258391 
952.835104  	0.279926 
954.763920  	0.303714 
956.692736  	0.326617 
958.621552  	0.345912 
960.550368  	0.357939 
962.479184  	0.363190 
964.408000  	0.360005 
966.336816  	0.349269 
968.265632  	0.331984 
970.194448  	0.311043 
972.123264  	0.287840 
974.052080  	0.264430 
975.980896  	0.242137 
977.909712  	0.221809 
979.838528  	0.204354 
981.767344  	0.190273 
983.696160  	0.180236 
985.624976  	0.174463 
987.553792  	0.173796 
989.482608  	0.177770 
991.411424  	0.185657 
993.340240  	0.196774 
995.269056  	0.209140 
997.197872  	0.222101 
999.126688  	0.234858 
1001.055504  	0.247764 
1002.984320  	0.260356 
1004.913136  	0.273207 
1006.841952  	0.284898 
1008.770768  	0.295362 
1010.699584  	0.303865 
1012.628400  	0.309689 
1014.557216  	0.312829 
1016.486032  	0.313672 
1018.414848  	0.313121 
1020.343664  	0.312342 
1022.272480  	0.311779 
1024.201296  	0.311506 
1026.130112  	0.311180 
1028.058928  	0.312605 
1029.987744  	0.316124 
1031.916560  	0.321528 
1033.845376  	0.328237 
1035.774192  	0.337023 
1037.703008  	0.348093 
1039.631824  	0.363755 
1041.560640  	0.384502 
1043.489456  	0.410547 
1045.418272  	0.437861 
1047.347088  	0.461890 
1049.275904  	0.476178 
1051.204720  	0.480711 
1053.133536  	0.476124 
1055.062352  	0.467351 
1056.991168  	0.457044 
1058.919984  	0.449514 
1060.848800  	0.443524 
1062.777616  	0.438140 
1064.706432  	0.431965 
1066.635248  	0.425425 
1068.564064  	0.416295 
1070.492880  	0.405447 
1072.421696  	0.395509 
1074.350512  	0.390476 
1076.279328  	0.390241 
1078.208144  	0.395300 
1080.136960  	0.400945 
1082.065776  	0.403229 
1083.994592  	0.398741 
1085.923408  	0.388027 
1087.852224  	0.371749 
1089.781040  	0.354145 
1091.709856  	0.334951 
1093.638672  	0.315356 
1095.567488  	0.295341 
1097.496304  	0.276054 
1099.425120  	0.257232 
1101.353936  	0.239814 
1103.282752  	0.223637 
1105.211568  	0.208976 
1107.140384  	0.195733 
1109.069200  	0.183848 
1110.998016  	0.173248 
1112.926832  	0.163580 
1114.855648  	0.154456 
1116.784464  	0.145713 
1118.713280  	0.137247 
1120.642096  	0.128925 
1122.570912  	0.121065 
1124.499728  	0.114137 
1126.428544  	0.108261 
1128.357360  	0.103198 
1130.286176  	0.098902 
1132.214992  	0.095723 
1134.143808  	0.093152 
1136.072624  	0.090939 
1138.001440  	0.089012 
1139.930256  	0.087315 
1141.859072  	0.085367 
1143.787888  	0.083275 
1145.716704  	0.081257 
1147.645520  	0.079448 
1149.574336  	0.078221 
1151.503152  	0.077699 
1153.431968  	0.078274 
1155.360784  	0.079150 
1157.289600  	0.080699 
1159.218416  	0.083086 
1161.147232  	0.086305 
1163.076048  	0.089636 
1165.004864  	0.093013 
1166.933680  	0.096066 
1168.862496  	0.099227 
1170.791312  	0.103151 
1172.720128  	0.107339 
1174.648944  	0.112062 
1176.577760  	0.116863 
1178.506576  	0.121883 
1180.435392  	0.126952 
1182.364208  	0.132313 
1184.293024  	0.138288 
1186.221840  	0.145069 
1188.150656  	0.152850 
1190.079472  	0.161682 
1192.008288  	0.172260 
1193.937104  	0.184121 
1195.865920  	0.197321 
1197.794736  	0.211748 
1199.723552  	0.226326 
1201.652368  	0.241167 
1203.581184  	0.254812 
1205.510000  	0.266850 
1207.438816  	0.276800 
1209.367632  	0.285503 
1211.296448  	0.291520 
1213.225264  	0.295474 
1215.154080  	0.296571 
1217.082896  	0.296197 
1219.011712  	0.294192 
1220.940528  	0.291522 
1222.869344  	0.287161 
1224.798160  	0.282024 
1226.726976  	0.275678 
1228.655792  	0.269194 
1230.584608  	0.261885 
1232.513424  	0.253783 
1234.442240  	0.245008 
1236.371056  	0.235913 
1238.299872  	0.226260 
1240.228688  	0.216086 
1242.157504  	0.205890 
1244.086320  	0.196195 
1246.015136  	0.186426 
1247.943952  	0.176875 
1249.872768  	0.167792 
1251.801584  	0.159351 
1253.730400  	0.150900 
1255.659216  	0.142928 
1257.588032  	0.135205 
1259.516848  	0.128087 
1261.445664  	0.121551 
1263.374480  	0.115915 
1265.303296  	0.111084 
1267.232112  	0.107185 
1269.160928  	0.104471 
1271.089744  	0.102903 
1273.018560  	0.102617 
1274.947376  	0.103485 
1276.876192  	0.104862 
1278.805008  	0.105860 
1280.733824  	0.105887 
1282.662640  	0.104219 
1284.591456  	0.101687 
1286.520272  	0.099459 
1288.449088  	0.098438 
1290.377904  	0.099173 
1292.306720  	0.100931 
1294.235536  	0.102166 
1296.164352  	0.101617 
1298.093168  	0.099174 
1300.021984  	0.095459 
1301.950800  	0.091375 
1303.879616  	0.087027 
1305.808432  	0.082220 
1307.737248  	0.077168 
1309.666064  	0.072413 
1311.594880  	0.068557 
1313.523696  	0.066008 
1315.452512  	0.064365 
1317.381328  	0.063449 
1319.310144  	0.063731 
1321.238960  	0.064723 
1323.167776  	0.066131 
1325.096592  	0.067526 
1327.025408  	0.068442 
1328.954224  	0.068466 
1330.883040  	0.067579 
1332.811856  	0.066045 
1334.740672  	0.064410 
1336.669488  	0.063256 
1338.598304  	0.062934 
1340.527120  	0.063328 
1342.455936  	0.063248 
1344.384752  	0.063378 
1346.313568  	0.064046 
1348.242384  	0.065352 
1350.171200  	0.067301 
1352.100016  	0.069599 
1354.028832  	0.072214 
1355.957648  	0.075092 
1357.886464  	0.077570 
1359.815280  	0.079923 
1361.744096  	0.083146 
1363.672912  	0.087563 
1365.601728  	0.090002 
1367.530544  	0.092037 
1369.459360  	0.094394 
1371.388176  	0.094837 
1373.316992  	0.093957 
1375.245808  	0.092242 
1377.174624  	0.088460 
1379.103440  	0.084662 
1381.032256  	0.081167 
1382.961072  	0.078422 
1384.889888  	0.075836 
1386.818704  	0.074311 
1388.747520  	0.072837 
1390.676336  	0.069876 
1392.605152  	0.066770 
1394.533968  	0.065725 
1396.462784  	0.066274 
1398.391600  	0.066329 
1400.320416  	0.067755 
1402.249232  	0.067542 
1404.178048  	0.068394 
1406.106864  	0.070284 
1408.035680  	0.071561 
1409.964496  	0.073371 
1411.893312  	0.076427 
1413.822128  	0.078908 
1415.750944  	0.080785 
1417.679760  	0.082733 
1419.608576  	0.086685 
1421.537392  	0.086451 
1423.466208  	0.084914 
1425.395024  	0.083482 
1427.323840  	0.080109 
1429.252656  	0.077087 
1431.181472  	0.075161 
1433.110288  	0.073825 
1435.039104  	0.073363 
1436.967920  	0.077772 
1438.896736  	0.080471 
1440.825552  	0.080870 
1442.754368  	0.081917 
1444.683184  	0.082039 
1446.612000  	0.082056 
1448.540816  	0.083263 
1450.469632  	0.083495 
1452.398448  	0.083329 
1454.327264  	0.082442 
1456.256080  	0.082193 
1458.184896  	0.086406 
1460.113712  	0.085555 
1462.042528  	0.083424 
1463.971344  	0.082805 
1465.900160  	0.085118 
1467.828976  	0.085451 
1469.757792  	0.085940 
1471.686608  	0.089573 
1473.615424  	0.100487 
1475.544240  	0.107150 
1477.473056  	0.114226 
1479.401872  	0.118290 
1481.330688  	0.122866 
1483.259504  	0.126113 
1485.188320  	0.127450 
1487.117136  	0.128030 
1489.045952  	0.128893 
1490.974768  	0.128170 
1492.903584  	0.123854 
1494.832400  	0.117416 
1496.761216  	0.110641 
1498.690032  	0.102921 
1500.618848  	0.095504 
1502.547664  	0.087898 
1504.476480  	0.080950 
1506.405296  	0.077533 
1508.334112  	0.077824 
1510.262928  	0.073835 
1512.191744  	0.071351 
1514.120560  	0.069522 
1516.049376  	0.069475 
1517.978192  	0.072256 
1519.907008  	0.072819 
1521.835824  	0.081015 
1523.764640  	0.086048 
1525.693456  	0.089035 
1527.622272  	0.092205 
1529.551088  	0.091612 
1531.479904  	0.088025 
1533.408720  	0.084984 
1535.337536  	0.080449 
1537.266352  	0.074081 
1539.195168  	0.069941 
1541.123984  	0.069665 
1543.052800  	0.067311 
1544.981616  	0.065477 
1546.910432  	0.063811 
1548.839248  	0.062134 
1550.768064  	0.063157 
1552.696880  	0.062225 
1554.625696  	0.063739 
1556.554512  	0.062943 
1558.483328  	0.067306 
1560.412144  	0.080321 
1562.340960  	0.079564 
1564.269776  	0.082041 
1566.198592  	0.088059 
1568.127408  	0.091547 
1570.056224  	0.102578 
1571.985040  	0.108955 
1573.913856  	0.111111 
1575.842672  	0.116258 
1577.771488  	0.122364 
1579.700304  	0.120132 
1581.629120  	0.118703 
1583.557936  	0.117857 
1585.486752  	0.119239 
1587.415568  	0.122411 
1589.344384  	0.128842 
1591.273200  	0.136962 
1593.202016  	0.146769 
1595.130832  	0.157118 
1597.059648  	0.167951 
1598.988464  	0.176403 
1600.917280  	0.184231 
1602.846096  	0.189470 
1604.774912  	0.192857 
1606.703728  	0.192736 
1608.632544  	0.192049 
1610.561360  	0.189159 
1612.490176  	0.186055 
1614.418992  	0.181586 
1616.347808  	0.182628 
1618.276624  	0.186791 
1620.205440  	0.187387 
1622.134256  	0.189683 
1624.063072  	0.200544 
1625.991888  	0.207071 
1627.920704  	0.216812 
1629.849520  	0.227920 
1631.778336  	0.235358 
1633.707152  	0.240272 
1635.635968  	0.253364 
1637.564784  	0.265922 
1639.493600  	0.268550 
1641.422416  	0.270647 
1643.351232  	0.271245 
1645.280048  	0.269797 
1647.208864  	0.274118 
1649.137680  	0.273003 
1651.066496  	0.266304 
1652.995312  	0.264349 
1654.924128  	0.267867 
1656.852944  	0.261314 
1658.781760  	0.255851 
1660.710576  	0.250026 
1662.639392  	0.245464 
1664.568208  	0.239803 
1666.497024  	0.232010 
1668.425840  	0.224700 
1670.354656  	0.219177 
1672.283472  	0.212181 
1674.212288  	0.205246 
1676.141104  	0.201362 
1678.069920  	0.196019 
1679.998736  	0.191624 
1681.927552  	0.187694 
1683.856368  	0.187438 
1685.785184  	0.191229 
1687.714000  	0.187535 
1689.642816  	0.186399 
1691.571632  	0.185065 
1693.500448  	0.181740 
1695.429264  	0.180322 
1697.358080  	0.181146 
1699.286896  	0.177904 
1701.215712  	0.180253 
1703.144528  	0.176316 
1705.073344  	0.172917 
1707.002160  	0.169458 
1708.930976  	0.163806 
1710.859792  	0.156577 
1712.788608  	0.148130 
1714.717424  	0.138112 
1716.646240  	0.127039 
1718.575056  	0.114300 
1720.503872  	0.101166 
1722.432688  	0.089487 
1724.361504  	0.077643 
1726.290320  	0.067307 
1728.219136  	0.058177 
1730.147952  	0.050602 
1732.076768  	0.043675 
1734.005584  	0.040912 
1735.934400  	0.037568 
1737.863216  	0.032972 
1739.792032  	0.030719 
1741.720848  	0.028960 
1743.649664  	0.026783 
1745.578480  	0.025041 
1747.507296  	0.023491 
1749.436112  	0.023219 
1751.364928  	0.023351 
1753.293744  	0.022372 
1755.222560  	0.020273 
1757.151376  	0.020688 
1759.080192  	0.019467 
1761.009008  	0.018978 
1762.937824  	0.019478 
1764.866640  	0.018247 
1766.795456  	0.016830 
1768.724272  	0.016955 
1770.653088  	0.015489 
1772.581904  	0.017449 
1774.510720  	0.017485 
1776.439536  	0.016630 
1778.368352  	0.015647 
1780.297168  	0.015803 
1782.225984  	0.015785 
1784.154800  	0.015542 
1786.083616  	0.015512 
1788.012432  	0.014675 
1789.941248  	0.013503 
1791.870064  	0.014698 
1793.798880  	0.015559 
1795.727696  	0.014659 
1797.656512  	0.013688 
1799.585328  	0.013417 
1801.514144  	0.014150 
1803.442960  	0.014160 
1805.371776  	0.013405 
1807.300592  	0.013116 
1809.229408  	0.012922 
1811.158224  	0.013392 
1813.087040  	0.013221 
1815.015856  	0.012549 
1816.944672  	0.012298 
1818.873488  	0.012771 
1820.802304  	0.012731 
1822.731120  	0.012347 
1824.659936  	0.012429 
1826.588752  	0.012585 
1828.517568  	0.011641 
1830.446384  	0.013351 
1832.375200  	0.013209 
1834.304016  	0.012914 
1836.232832  	0.012834 
1838.161648  	0.012747 
1840.090464  	0.012172 
1842.019280  	0.011395 
1843.948096  	0.012439 
1845.876912  	0.013611 
1847.805728  	0.012946 
1849.734544  	0.013076 
1851.663360  	0.012417 
1853.592176  	0.012339 
1855.520992  	0.012024 
1857.449808  	0.012203 
1859.378624  	0.012169 
1861.307440  	0.012557 
1863.236256  	0.011892 
1865.165072  	0.011044 
1867.093888  	0.010789 
1869.022704  	0.012612 
1870.951520  	0.012691 
1872.880336  	0.012279 
1874.809152  	0.011803 
1876.737968  	0.011739 
1878.666784  	0.011888 
1880.595600  	0.012137 
1882.524416  	0.011831 
1884.453232  	0.011825 
1886.382048  	0.011447 
1888.310864  	0.011441 
1890.239680  	0.012153 
1892.168496  	0.011911 
1894.097312  	0.011027 
1896.026128  	0.011627 
1897.954944  	0.011800 
1899.883760  	0.011856 
1901.812576  	0.011657 
1903.741392  	0.011994 
1905.670208  	0.011950 
1907.599024  	0.012090 
1909.527840  	0.012196 
1911.456656  	0.012403 
1913.385472  	0.012014 
1915.314288  	0.011682 
1917.243104  	0.011618 
1919.171920  	0.012614 
1921.100736  	0.011974 
1923.029552  	0.012550 
1924.958368  	0.011803 
1926.887184  	0.011272 
1928.816000  	0.011627 
1930.744816  	0.011956 
1932.673632  	0.011238 
1934.602448  	0.011367 
1936.531264  	0.011173 
1938.460080  	0.010786 
1940.388896  	0.010029 
1942.317712  	0.011060 
1944.246528  	0.011602 
1946.175344  	0.011639 
1948.104160  	0.010948 
1950.032976  	0.010488 
1951.961792  	0.010415 
1953.890608  	0.012056 
1955.819424  	0.012016 
1957.748240  	0.011221 
1959.677056  	0.010155 
1961.605872  	0.010506 
1963.534688  	0.009299 
1965.463504  	0.009779 
1967.392320  	0.009624 
1969.321136  	0.010325 
1971.249952  	0.010198 
1973.178768  	0.010414 
1975.107584  	0.009811 
1977.036400  	0.010771 
1978.965216  	0.012326 
1980.894032  	0.012771 
1982.822848  	0.011867 
1984.751664  	0.011858 
1986.680480  	0.011330 
1988.609296  	0.011954 
1990.538112  	0.011042 
1992.466928  	0.011209 
1994.395744  	0.010630 
1996.324560  	0.011159 
1998.253376  	0.011053 
2000.182192  	0.011175 
2002.111008  	0.011327 
2004.039824  	0.011444 
2005.968640  	0.010695 
2007.897456  	0.010779 
2009.826272  	0.010879 
2011.755088  	0.011095 
2013.683904  	0.011333 
2015.612720  	0.012085 
2017.541536  	0.012396 
2019.470352  	0.013405 
2021.399168  	0.013612 
2023.327984  	0.014397 
2025.256800  	0.013039 
2027.185616  	0.012745 
2029.114432  	0.012938 
2031.043248  	0.013390 
2032.972064  	0.012977 
2034.900880  	0.014579 
2036.829696  	0.015095 
2038.758512  	0.014944 
2040.687328  	0.013999 
2042.616144  	0.014655 
2044.544960  	0.014253 
2046.473776  	0.014047 
2048.402592  	0.013811 
2050.331408  	0.014259 
2052.260224  	0.012947 
2054.189040  	0.012447 
2056.117856  	0.012490 
2058.046672  	0.012987 
2059.975488  	0.013156 
2061.904304  	0.013560 
2063.833120  	0.012992 
2065.761936  	0.013640 
2067.690752  	0.013697 
2069.619568  	0.013935 
2071.548384  	0.013692 
2073.477200  	0.013975 
2075.406016  	0.014064 
2077.334832  	0.014432 
2079.263648  	0.014411 
2081.192464  	0.014408 
2083.121280  	0.013786 
2085.050096  	0.013743 
2086.978912  	0.013404 
2088.907728  	0.013414 
2090.836544  	0.013384 
2092.765360  	0.013285 
2094.694176  	0.013549 
2096.622992  	0.014630 
2098.551808  	0.015028 
2100.480624  	0.014664 
2102.409440  	0.014027 
2104.338256  	0.013974 
2106.267072  	0.014607 
2108.195888  	0.015163 
2110.124704  	0.014739 
2112.053520  	0.014786 
2113.982336  	0.014768 
2115.911152  	0.014766 
2117.839968  	0.014380 
2119.768784  	0.014025 
2121.697600  	0.013608 
2123.626416  	0.014143 
2125.555232  	0.013952 
2127.484048  	0.013751 
2129.412864  	0.013259 
2131.341680  	0.012499 
2133.270496  	0.012366 
2135.199312  	0.013877 
2137.128128  	0.014128 
2139.056944  	0.013490 
2140.985760  	0.013192 
2142.914576  	0.013897 
2144.843392  	0.014802 
2146.772208  	0.015251 
2148.701024  	0.015406 
2150.629840  	0.015548 
2152.558656  	0.013460 
2154.487472  	0.012752 
2156.416288  	0.013267 
2158.345104  	0.016291 
2160.273920  	0.018338 
2162.202736  	0.019394 
2164.131552  	0.019036 
2166.060368  	0.018348 
2167.989184  	0.017523 
2169.918000  	0.017294 
2171.846816  	0.016519 
2173.775632  	0.016030 
2175.704448  	0.015802 
2177.633264  	0.015867 
2179.562080  	0.015012 
2181.490896  	0.015083 
2183.419712  	0.015298 
2185.348528  	0.016055 
2187.277344  	0.016586 
2189.206160  	0.016626 
2191.134976  	0.017019 
2193.063792  	0.017574 
2194.992608  	0.016724 
2196.921424  	0.016220 
2198.850240  	0.016002 
2200.779056  	0.016091 
2202.707872  	0.015618 
2204.636688  	0.015287 
2206.565504  	0.015302 
2208.494320  	0.016396 
2210.423136  	0.015955 
2212.351952  	0.015113 
2214.280768  	0.014965 
2216.209584  	0.015691 
2218.138400  	0.015165 
2220.067216  	0.014983 
2221.996032  	0.014980 
2223.924848  	0.015473 
2225.853664  	0.015120 
2227.782480  	0.014922 
2229.711296  	0.015355 
2231.640112  	0.015232 
2233.568928  	0.014849 
2235.497744  	0.015357 
2237.426560  	0.015335 
2239.355376  	0.014890 
2241.284192  	0.014514 
2243.213008  	0.014573 
2245.141824  	0.014622 
2247.070640  	0.015068 
2248.999456  	0.014496 
2250.928272  	0.014365 
2252.857088  	0.014490 
2254.785904  	0.014585 
2256.714720  	0.014497 
2258.643536  	0.014639 
2260.572352  	0.014840 
2262.501168  	0.015080 
2264.429984  	0.014839 
2266.358800  	0.014764 
2268.287616  	0.015102 
2270.216432  	0.015353 
2272.145248  	0.015063 
2274.074064  	0.015560 
2276.002880  	0.015670 
2277.931696  	0.015649 
2279.860512  	0.015901 
2281.789328  	0.016346 
2283.718144  	0.016256 
2285.646960  	0.016225 
2287.575776  	0.016133 
2289.504592  	0.016293 
2291.433408  	0.016062 
2293.362224  	0.016038 
2295.291040  	0.016160 
2297.219856  	0.016256 
2299.148672  	0.016256 
2301.077488  	0.016262 
2303.006304  	0.015977 
2304.935120  	0.015577 
2306.863936  	0.015846 
2308.792752  	0.016158 
2310.721568  	0.016002 
2312.650384  	0.015868 
2314.579200  	0.015719 
2316.508016  	0.015730 
2318.436832  	0.015671 
2320.365648  	0.016019 
2322.294464  	0.016230 
2324.223280  	0.016145 
2326.152096  	0.015041 
2328.080912  	0.014531 
2330.009728  	0.014612 
2331.938544  	0.014664 
2333.867360  	0.014022 
2335.796176  	0.013803 
2337.724992  	0.013913 
2339.653808  	0.013826 
2341.582624  	0.013856 
2343.511440  	0.014528 
2345.440256  	0.015624 
2347.369072  	0.015866 
2349.297888  	0.014192 
2351.226704  	0.012954 
2353.155520  	0.012551 
2355.084336  	0.012273 
2357.013152  	0.012330 
2358.941968  	0.012678 
2360.870784  	0.013661 
2362.799600  	0.014290 
2364.728416  	0.014385 
2366.657232  	0.014971 
2368.586048  	0.015701 
2370.514864  	0.016297 
2372.443680  	0.016552 
2374.372496  	0.016455 
2376.301312  	0.016515 
2378.230128  	0.017001 
2380.158944  	0.016959 
2382.087760  	0.016838 
2384.016576  	0.016621 
2385.945392  	0.016409 
2387.874208  	0.016414 
2389.803024  	0.016491 
2391.731840  	0.016469 
2393.660656  	0.016279 
2395.589472  	0.016094 
2397.518288  	0.016087 
2399.447104  	0.016203 
2401.375920  	0.016512 
2403.304736  	0.016717 
2405.233552  	0.016853 
2407.162368  	0.016853 
2409.091184  	0.016909 
2411.020000  	0.017138 
2412.948816  	0.017288 
2414.877632  	0.017375 
2416.806448  	0.017492 
2418.735264  	0.017374 
2420.664080  	0.017343 
2422.592896  	0.017469 
2424.521712  	0.017692 
2426.450528  	0.017908 
2428.379344  	0.018093 
2430.308160  	0.018097 
2432.236976  	0.018148 
2434.165792  	0.018265 
2436.094608  	0.018426 
2438.023424  	0.018386 
2439.952240  	0.018277 
2441.881056  	0.018540 
2443.809872  	0.018868 
2445.738688  	0.018965 
2447.667504  	0.019093 
2449.596320  	0.019066 
2451.525136  	0.018874 
2453.453952  	0.018956 
2455.382768  	0.019176 
2457.311584  	0.019274 
2459.240400  	0.019214 
2461.169216  	0.019248 
2463.098032  	0.019519 
2465.026848  	0.019560 
2466.955664  	0.019580 
2468.884480  	0.019693 
2470.813296  	0.019959 
2472.742112  	0.019878 
2474.670928  	0.020052 
2476.599744  	0.020219 
2478.528560  	0.020290 
2480.457376  	0.020467 
2482.386192  	0.020621 
2484.315008  	0.020494 
2486.243824  	0.020532 
2488.172640  	0.020895 
2490.101456  	0.021220 
2492.030272  	0.021190 
2493.959088  	0.021084 
2495.887904  	0.021114 
2497.816720  	0.021480 
2499.745536  	0.021630 
2501.674352  	0.021938 
2503.603168  	0.021979 
2505.531984  	0.021979 
2507.460800  	0.022000 
2509.389616  	0.022157 
2511.318432  	0.022240 
2513.247248  	0.022374 
2515.176064  	0.022574 
2517.104880  	0.022696 
2519.033696  	0.022775 
2520.962512  	0.022844 
2522.891328  	0.022786 
2524.820144  	0.023011 
2526.748960  	0.023078 
2528.677776  	0.023113 
2530.606592  	0.023311 
2532.535408  	0.023505 
2534.464224  	0.023345 
2536.393040  	0.023291 
2538.321856  	0.023472 
2540.250672  	0.023467 
2542.179488  	0.023502 
2544.108304  	0.023743 
2546.037120  	0.024106 
2547.965936  	0.024382 
2549.894752  	0.024445 
2551.823568  	0.024254 
2553.752384  	0.024074 
2555.681200  	0.024199 
2557.610016  	0.024606 
2559.538832  	0.024832 
2561.467648  	0.024913 
2563.396464  	0.025023 
2565.325280  	0.025055 
2567.254096  	0.025249 
2569.182912  	0.025546 
2571.111728  	0.025758 
2573.040544  	0.026073 
2574.969360  	0.026525 
2576.898176  	0.026761 
2578.826992  	0.026913 
2580.755808  	0.026935 
2582.684624  	0.027112 
2584.613440  	0.027161 
2586.542256  	0.027246 
2588.471072  	0.027496 
2590.399888  	0.027651 
2592.328704  	0.027754 
2594.257520  	0.028090 
2596.186336  	0.028274 
2598.115152  	0.028448 
2600.043968  	0.028680 
2601.972784  	0.028875 
2603.901600  	0.028990 
2605.830416  	0.029134 
2607.759232  	0.029258 
2609.688048  	0.029166 
2611.616864  	0.029332 
2613.545680  	0.029687 
2615.474496  	0.029950 
2617.403312  	0.030174 
2619.332128  	0.030317 
2621.260944  	0.030501 
2623.189760  	0.030637 
2625.118576  	0.030930 
2627.047392  	0.031224 
2628.976208  	0.031462 
2630.905024  	0.031764 
2632.833840  	0.032109 
2634.762656  	0.032263 
2636.691472  	0.032394 
2638.620288  	0.032668 
2640.549104  	0.032982 
2642.477920  	0.033251 
2644.406736  	0.033541 
2646.335552  	0.033852 
2648.264368  	0.034142 
2650.193184  	0.034291 
2652.122000  	0.034551 
2654.050816  	0.034837 
2655.979632  	0.035031 
2657.908448  	0.035170 
2659.837264  	0.035428 
2661.766080  	0.035743 
2663.694896  	0.035863 
2665.623712  	0.035900 
2667.552528  	0.036182 
2669.481344  	0.036434 
2671.410160  	0.036698 
2673.338976  	0.036985 
2675.267792  	0.037130 
2677.196608  	0.037210 
2679.125424  	0.037450 
2681.054240  	0.037735 
2682.983056  	0.037907 
2684.911872  	0.038102 
2686.840688  	0.038290 
2688.769504  	0.038531 
2690.698320  	0.038787 
2692.627136  	0.038989 
2694.555952  	0.039197 
2696.484768  	0.039363 
2698.413584  	0.039591 
2700.342400  	0.039716 
2702.271216  	0.039858 
2704.200032  	0.040137 
2706.128848  	0.040396 
2708.057664  	0.040581 
2709.986480  	0.040856 
2711.915296  	0.041010 
2713.844112  	0.041153 
2715.772928  	0.041432 
2717.701744  	0.041655 
2719.630560  	0.041895 
2721.559376  	0.042198 
2723.488192  	0.042348 
2725.417008  	0.042592 
2727.345824  	0.042849 
2729.274640  	0.043016 
2731.203456  	0.043220 
2733.132272  	0.043488 
2735.061088  	0.043828 
2736.989904  	0.044150 
2738.918720  	0.044360 
2740.847536  	0.044488 
2742.776352  	0.044732 
2744.705168  	0.044912 
2746.633984  	0.044959 
2748.562800  	0.045067 
2750.491616  	0.045319 
2752.420432  	0.045544 
2754.349248  	0.045580 
2756.278064  	0.045635 
2758.206880  	0.045634 
2760.135696  	0.045691 
2762.064512  	0.045824 
2763.993328  	0.045871 
2765.922144  	0.045877 
2767.850960  	0.045943 
2769.779776  	0.045966 
2771.708592  	0.045808 
2773.637408  	0.045707 
2775.566224  	0.045707 
2777.495040  	0.045741 
2779.423856  	0.045860 
2781.352672  	0.045869 
2783.281488  	0.045781 
2785.210304  	0.045741 
2787.139120  	0.045804 
2789.067936  	0.045846 
2790.996752  	0.045847 
2792.925568  	0.045816 
2794.854384  	0.045813 
2796.783200  	0.045894 
2798.712016  	0.045864 
2800.640832  	0.045920 
2802.569648  	0.046049 
2804.498464  	0.045970 
2806.427280  	0.045948 
2808.356096  	0.046067 
2810.284912  	0.046102 
2812.213728  	0.046056 
2814.142544  	0.046104 
2816.071360  	0.046127 
2818.000176  	0.046242 
2819.928992  	0.046393 
2821.857808  	0.046523 
2823.786624  	0.046559 
2825.715440  	0.046503 
2827.644256  	0.046402 
2829.573072  	0.046406 
2831.501888  	0.046453 
2833.430704  	0.046383 
2835.359520  	0.046198 
2837.288336  	0.046115 
2839.217152  	0.046216 
2841.145968  	0.046136 
2843.074784  	0.046077 
2845.003600  	0.046149 
2846.932416  	0.046352 
2848.861232  	0.046566 
2850.790048  	0.046613 
2852.718864  	0.046614 
2854.647680  	0.046513 
2856.576496  	0.046398 
2858.505312  	0.046465 
2860.434128  	0.046579 
2862.362944  	0.046594 
2864.291760  	0.046699 
2866.220576  	0.046828 
2868.149392  	0.046956 
2870.078208  	0.047150 
2872.007024  	0.047471 
2873.935840  	0.047939 
2875.864656  	0.048406 
2877.793472  	0.049014 
2879.722288  	0.049700 
2881.651104  	0.050248 
2883.579920  	0.050617 
2885.508736  	0.051008 
2887.437552  	0.051315 
2889.366368  	0.051443 
2891.295184  	0.051565 
2893.224000  	0.051565 
2895.152816  	0.051504 
2897.081632  	0.051343 
2899.010448  	0.050928 
2900.939264  	0.050631 
2902.868080  	0.050931 
2904.796896  	0.051281 
2906.725712  	0.051665 
2908.654528  	0.052069 
2910.583344  	0.052622 
2912.512160  	0.053386 
2914.440976  	0.054296 
2916.369792  	0.055111 
2918.298608  	0.055787 
2920.227424  	0.056451 
2922.156240  	0.057145 
2924.085056  	0.057800 
2926.013872  	0.058553 
2927.942688  	0.059522 
2929.871504  	0.060579 
2931.800320  	0.061428 
2933.729136  	0.062309 
2935.657952  	0.063171 
2937.586768  	0.063960 
2939.515584  	0.064726 
2941.444400  	0.065313 
2943.373216  	0.065788 
2945.302032  	0.066034 
2947.230848  	0.066138 
2949.159664  	0.066310 
2951.088480  	0.066269 
2953.017296  	0.065959 
2954.946112  	0.065600 
2956.874928  	0.065269 
2958.803744  	0.064752 
2960.732560  	0.064242 
2962.661376  	0.063633 
2964.590192  	0.063125 
2966.519008  	0.062502 
2968.447824  	0.061704 
2970.376640  	0.060861 
2972.305456  	0.059971 
2974.234272  	0.059388 
2976.163088  	0.058939 
2978.091904  	0.058555 
2980.020720  	0.058304 
2981.949536  	0.058185 
2983.878352  	0.058188 
2985.807168  	0.058178 
2987.735984  	0.058360 
2989.664800  	0.058806 
2991.593616  	0.059684 
2993.522432  	0.060331 
2995.451248  	0.060903 
2997.380064  	0.061670 
2999.308880  	0.062406 
3001.237696  	0.063034 
3003.166512  	0.063465 
3005.095328  	0.064035 
3007.024144  	0.064698 
3008.952960  	0.065484 
3010.881776  	0.066064 
3012.810592  	0.066565 
3014.739408  	0.067231 
3016.668224  	0.067792 
3018.597040  	0.068375 
3020.525856  	0.068917 
3022.454672  	0.069694 
3024.383488  	0.070348 
3026.312304  	0.070940 
3028.241120  	0.071388 
3030.169936  	0.071888 
3032.098752  	0.072478 
3034.027568  	0.073083 
3035.956384  	0.073837 
3037.885200  	0.074339 
3039.814016  	0.074836 
3041.742832  	0.075419 
3043.671648  	0.076104 
3045.600464  	0.077120 
3047.529280  	0.077860 
3049.458096  	0.078419 
3051.386912  	0.078925 
3053.315728  	0.079453 
3055.244544  	0.080130 
3057.173360  	0.081202 
3059.102176  	0.082075 
3061.030992  	0.082886 
3062.959808  	0.083652 
3064.888624  	0.084670 
3066.817440  	0.085792 
3068.746256  	0.086727 
3070.675072  	0.087493 
3072.603888  	0.088401 
3074.532704  	0.089342 
3076.461520  	0.090084 
3078.390336  	0.090921 
3080.319152  	0.092020 
3082.247968  	0.092815 
3084.176784  	0.093636 
3086.105600  	0.094494 
3088.034416  	0.095448 
3089.963232  	0.096412 
3091.892048  	0.097302 
3093.820864  	0.098220 
3095.749680  	0.099256 
3097.678496  	0.100065 
3099.607312  	0.100789 
3101.536128  	0.101859 
3103.464944  	0.102932 
3105.393760  	0.103804 
3107.322576  	0.104491 
3109.251392  	0.105108 
3111.180208  	0.105882 
3113.109024  	0.106344 
3115.037840  	0.106743 
3116.966656  	0.107563 
3118.895472  	0.108403 
3120.824288  	0.108941 
3122.753104  	0.109491 
3124.681920  	0.109921 
3126.610736  	0.110504 
3128.539552  	0.111138 
3130.468368  	0.111339 
3132.397184  	0.111827 
3134.326000  	0.112272 
3136.254816  	0.112594 
3138.183632  	0.113087 
3140.112448  	0.113660 
3142.041264  	0.114155 
3143.970080  	0.114547 
3145.898896  	0.114997 
3147.827712  	0.115545 
3149.756528  	0.116227 
3151.685344  	0.116658 
3153.614160  	0.117114 
3155.542976  	0.117667 
3157.471792  	0.118085 
3159.400608  	0.118480 
3161.329424  	0.118879 
3163.258240  	0.119360 
3165.187056  	0.119870 
3167.115872  	0.120334 
3169.044688  	0.120978 
3170.973504  	0.121455 
3172.902320  	0.121517 
3174.831136  	0.121419 
3176.759952  	0.121646 
3178.688768  	0.122130 
3180.617584  	0.122261 
3182.546400  	0.122138 
3184.475216  	0.122135 
3186.404032  	0.122062 
3188.332848  	0.121872 
3190.261664  	0.121686 
3192.190480  	0.121516 
3194.119296  	0.121231 
3196.048112  	0.120882 
3197.976928  	0.120610 
3199.905744  	0.120320 
3201.834560  	0.119912 
3203.763376  	0.119367 
3205.692192  	0.118872 
3207.621008  	0.118408 
3209.549824  	0.118044 
3211.478640  	0.117772 
3213.407456  	0.117527 
3215.336272  	0.117442 
3217.265088  	0.116892 
3219.193904  	0.116464 
3221.122720  	0.116348 
3223.051536  	0.116182 
3224.980352  	0.115572 
3226.909168  	0.114847 
3228.837984  	0.114331 
3230.766800  	0.114092 
3232.695616  	0.113983 
3234.624432  	0.113768 
3236.553248  	0.113662 
3238.482064  	0.113566 
3240.410880  	0.113493 
3242.339696  	0.113686 
3244.268512  	0.113835 
3246.197328  	0.114183 
3248.126144  	0.113967 
3250.054960  	0.114064 
3251.983776  	0.114206 
3253.912592  	0.114421 
3255.841408  	0.114814 
3257.770224  	0.115149 
3259.699040  	0.115317 
3261.627856  	0.115448 
3263.556672  	0.115574 
3265.485488  	0.115888 
3267.414304  	0.116028 
3269.343120  	0.116147 
3271.271936  	0.116211 
3273.200752  	0.116454 
3275.129568  	0.116828 
3277.058384  	0.116872 
3278.987200  	0.116906 
3280.916016  	0.117156 
3282.844832  	0.117199 
3284.773648  	0.117357 
3286.702464  	0.117376 
3288.631280  	0.117635 
3290.560096  	0.117928 
3292.488912  	0.118470 
3294.417728  	0.118708 
3296.346544  	0.118910 
3298.275360  	0.119287 
3300.204176  	0.119770 
3302.132992  	0.120195 
3304.061808  	0.120464 
3305.990624  	0.120508 
3307.919440  	0.120779 
3309.848256  	0.121382 
3311.777072  	0.121805 
3313.705888  	0.122020 
3315.634704  	0.122224 
3317.563520  	0.122498 
3319.492336  	0.122817 
3321.421152  	0.123040 
3323.349968  	0.123106 
3325.278784  	0.123044 
3327.207600  	0.123247 
3329.136416  	0.123407 
3331.065232  	0.123442 
3332.994048  	0.123302 
3334.922864  	0.123341 
3336.851680  	0.123432 
3338.780496  	0.123307 
3340.709312  	0.122862 
3342.638128  	0.122605 
3344.566944  	0.122271 
3346.495760  	0.121976 
3348.424576  	0.121565 
3350.353392  	0.121360 
3352.282208  	0.121159 
3354.211024  	0.120724 
3356.139840  	0.120182 
3358.068656  	0.119870 
3359.997472  	0.119432 
3361.926288  	0.118951 
3363.855104  	0.118440 
3365.783920  	0.118223 
3367.712736  	0.117647 
3369.641552  	0.117057 
3371.570368  	0.116710 
3373.499184  	0.116238 
3375.428000  	0.115617 
3377.356816  	0.115381 
3379.285632  	0.115369 
3381.214448  	0.114998 
3383.143264  	0.114316 
3385.072080  	0.113926 
3387.000896  	0.113520 
3388.929712  	0.112879 
3390.858528  	0.111990 
3392.787344  	0.111779 
3394.716160  	0.111425 
3396.644976  	0.111081 
3398.573792  	0.110844 
3400.502608  	0.110159 
3402.431424  	0.109570 
3404.360240  	0.109186 
3406.289056  	0.108496 
3408.217872  	0.107705 
3410.146688  	0.107363 
3412.075504  	0.107096 
3414.004320  	0.106458 
3415.933136  	0.105637 
3417.861952  	0.104768 
3419.790768  	0.104406 
3421.719584  	0.104303 
3423.648400  	0.103710 
3425.577216  	0.102773 
3427.506032  	0.101978 
3429.434848  	0.101390 
3431.363664  	0.100873 
3433.292480  	0.100072 
3435.221296  	0.099241 
3437.150112  	0.098596 
3439.078928  	0.098193 
3441.007744  	0.097517 
3442.936560  	0.096813 
3444.865376  	0.095541 
3446.794192  	0.095257 
3448.723008  	0.095398 
3450.651824  	0.093952 
3452.580640  	0.092867 
3454.509456  	0.092337 
3456.438272  	0.091654 
3458.367088  	0.090627 
3460.295904  	0.089782 
3462.224720  	0.089289 
3464.153536  	0.088577 
3466.082352  	0.087510 
3468.011168  	0.086422 
3469.939984  	0.085289 
3471.868800  	0.084139 
3473.797616  	0.083396 
3475.726432  	0.082857 
3477.655248  	0.081758 
3479.584064  	0.080538 
3481.512880  	0.080194 
3483.441696  	0.079755 
3485.370512  	0.078366 
3487.299328  	0.077157 
3489.228144  	0.076367 
3491.156960  	0.075273 
3493.085776  	0.073914 
3495.014592  	0.072915 
3496.943408  	0.072480 
3498.872224  	0.071398 
3500.801040  	0.069726 
3502.729856  	0.069664 
3504.658672  	0.069918 
3506.587488  	0.068324 
3508.516304  	0.067298 
3510.445120  	0.067432 
3512.373936  	0.066595 
3514.302752  	0.065355 
3516.231568  	0.064066 
3518.160384  	0.063087 
3520.089200  	0.062108 
3522.018016  	0.061107 
3523.946832  	0.061070 
3525.875648  	0.060126 
3527.804464  	0.059606 
3529.733280  	0.059556 
3531.662096  	0.058770 
3533.590912  	0.057128 
3535.519728  	0.056401 
3537.448544  	0.056502 
3539.377360  	0.055154 
3541.306176  	0.053838 
3543.234992  	0.052831 
3545.163808  	0.052864 
3547.092624  	0.053271 
3549.021440  	0.051852 
3550.950256  	0.050057 
3552.879072  	0.050338 
3554.807888  	0.049830 
3556.736704  	0.048473 
3558.665520  	0.047405 
3560.594336  	0.046826 
3562.523152  	0.045525 
3564.451968  	0.043511 
3566.380784  	0.044362 
3568.309600  	0.047393 
3570.238416  	0.045183 
3572.167232  	0.042435 
3574.096048  	0.041314 
3576.024864  	0.040513 
3577.953680  	0.039668 
3579.882496  	0.039104 
3581.811312  	0.038077 
3583.740128  	0.035976 
3585.668944  	0.034363 
3587.597760  	0.037130 
3589.526576  	0.037615 
3591.455392  	0.033784 
3593.384208  	0.032197 
3595.313024  	0.032641 
3597.241840  	0.031875 
3599.170656  	0.030462 
3601.099472  	0.030576 
3603.028288  	0.029635 
3604.957104  	0.026976 
3606.885920  	0.025618 
3608.814736  	0.026794 
3610.743552  	0.024966 
3612.672368  	0.023673 
3614.601184  	0.023628 
3616.530000  	0.020742 
3618.458816  	0.020832 
3620.387632  	0.023452 
3622.316448  	0.021421 
3624.245264  	0.018011 
3626.174080  	0.014149 
3628.102896  	0.014336 
3630.031712  	0.020495 
3631.960528  	0.016842 
3633.889344  	0.015305 
3635.818160  	0.014613 
3637.746976  	0.013204 
3639.675792  	0.012258 
3641.604608  	0.010973 
3643.533424  	0.009308 
3645.462240  	0.005909 
3647.391056  	0.005385 
3649.319872  	0.009419 
3651.248688  	0.012918 
3653.177504  	0.008109 
3655.106320  	0.005527 
3657.035136  	0.007968 
3658.963952  	0.006644 
3660.892768  	0.005184 
3662.821584  	0.004322 
3664.750400  	0.003219 
3666.679216  	0.000877 
3668.608032  	-0.000283 
3670.536848  	0.004478 
3672.465664  	0.001620 
3674.394480  	-0.000621 
3676.323296  	0.006880 
3678.252112  	0.004578 
3680.180928  	0.003409 
3682.109744  	0.002204 
3684.038560  	0.000911 
3685.967376  	-0.001423 
3687.896192  	-0.001442 
3689.825008  	0.002643 
3691.753824  	0.004123 
3693.682640  	0.002676 
3695.611456  	0.001582 
3697.540272  	0.001349 
3699.469088  	0.000140 
3701.397904  	0.001468 
3703.326720  	0.002712 
3705.255536  	0.001044 
3707.184352  	-0.000612 
3709.113168  	-0.001147 
3711.041984  	0.001351 
3712.970800  	0.004609 
3714.899616  	0.002975 
3716.828432  	0.000835 
3718.757248  	0.000755 
3720.686064  	0.000311 
3722.614880  	0.000739 
3724.543696  	0.000904 
3726.472512  	0.002114 
3728.401328  	0.001355 
3730.330144  	-0.001732 
3732.258960  	-0.001274 
3734.187776  	0.000316 
3736.116592  	0.004391 
3738.045408  	0.004180 
3739.974224  	0.001425 
3741.903040  	-0.002220 
3743.831856  	-0.001054 
3745.760672  	0.004315 
3747.689488  	-0.000428 
3749.618304  	-0.000382 
3751.547120  	0.004462 
3753.475936  	0.004936 
3755.404752  	0.001426 
3757.333568  	0.000600 
3759.262384  	0.002198 
3761.191200  	0.003356 
3763.120016  	0.000950 
3765.048832  	0.001457 
3766.977648  	0.001710 
3768.906464  	0.001384 
3770.835280  	0.003644 
3772.764096  	0.002616 
3774.692912  	0.001366 
3776.621728  	0.000198 
3778.550544  	0.000595 
3780.479360  	0.002942 
3782.408176  	0.001478 
3784.336992  	0.001596 
3786.265808  	0.002546 
3788.194624  	0.002052 
3790.123440  	0.001531 
3792.052256  	0.001212 
3793.981072  	0.000068 
3795.909888  	0.000489 
3797.838704  	0.000769 
3799.767520  	-0.001427 
3801.696336  	0.002922 
3803.625152  	0.003007 
3805.553968  	0.000012 
3807.482784  	0.003384 
3809.411600  	0.002768 
3811.340416  	0.000970 
3813.269232  	-0.001117 
3815.198048  	-0.000634 
3817.126864  	0.002226 
3819.055680  	-0.001074 
3820.984496  	0.002799 
3822.913312  	0.005050 
3824.842128  	0.001102 
3826.770944  	0.001567 
3828.699760  	0.001191 
3830.628576  	0.000212 
3832.557392  	0.000520 
3834.486208  	-0.000636 
3836.415024  	-0.000848 
3838.343840  	0.001657 
3840.272656  	0.002962 
3842.201472  	0.002223 
3844.130288  	0.002700 
3846.059104  	0.001852 
3847.987920  	-0.000402 
3849.916736  	-0.003039 
3851.845552  	-0.003852 
3853.774368  	0.005489 
3855.703184  	0.006067 
3857.632000  	0.002983 
3859.560816  	0.000621 
3861.489632  	-0.000315 
3863.418448  	0.000470 
3865.347264  	0.002676 
3867.276080  	-0.000032 
3869.204896  	0.000132 
3871.133712  	0.003545 
3873.062528  	0.001558 
3874.991344  	0.003083 
3876.920160  	0.000714 
3878.848976  	-0.000721 
3880.777792  	0.002168 
3882.706608  	0.001419 
3884.635424  	0.000475 
3886.564240  	0.003581 
3888.493056  	0.000765 
3890.421872  	0.000244 
3892.350688  	0.003098 
3894.279504  	0.002206 
3896.208320  	-0.000209 
3898.137136  	-0.000885 
3900.065952  	0.000521 
3901.994768  	0.001232 
3903.923584  	0.003152 
3905.852400  	0.004089 
3907.781216  	0.002473 
3909.710032  	0.001388 
3911.638848  	0.001248 
3913.567664  	0.000847 
3915.496480  	0.000646 
3917.425296  	0.001940 
3919.354112  	0.002054 
3921.282928  	0.001429 
3923.211744  	0.000914 
3925.140560  	0.002298 
3927.069376  	0.001698 
3928.998192  	0.000738 
3930.927008  	0.001309 
3932.855824  	0.002555 
3934.784640  	0.002210 
3936.713456  	0.001546 
3938.642272  	0.001547 
3940.571088  	0.000977 
3942.499904  	0.001693 
3944.428720  	0.001973 
3946.357536  	0.000898 
3948.286352  	0.001262 
3950.215168  	0.002015 
3952.143984  	0.001801 
3954.072800  	0.001462 
3956.001616  	0.001433 
3957.930432  	0.001577 
3959.859248  	0.001533 
3961.788064  	0.001781 
3963.716880  	0.002045 
3965.645696  	0.001658 
3967.574512  	0.001469 
3969.503328  	0.001515 
3971.432144  	0.001538 
3973.360960  	0.001678 
3975.289776  	0.001886 
3977.218592  	0.001872 
3979.147408  	0.001743 
3981.076224  	0.001750 
3983.005040  	0.002001 
3984.933856  	0.001902 
3986.862672  	0.001722 
3988.791488  	0.001487 
3990.720304  	0.001453 
3992.649120  	0.001544 
3994.577936  	0.001673 
3996.506752  	0.001636 
3998.435568  	0.001587 
4000.364384  	0.001638 