##TITLE=No Description
##DATA TYPE=INFRARED SPECTRUM
##XUNITS=1/CM
##YUNITS=Abs
399.264912  	0.600890 
401.193728  	0.594758 
403.122544  	0.606504 
405.051360  	0.594950 
406.980176  	0.598172 
408.908992  	0.599667 
410.837808  	0.611284 
412.766624  	0.593001 
414.695440  	0.573261 
416.624256  	0.565833 
418.553072  	0.564120 
420.481888  	0.564862 
422.410704  	0.583650 
424.339520  	0.583658 
426.268336  	0.572328 
428.197152  	0.557696 
430.125968  	0.555616 
432.054784  	0.552313 
433.983600  	0.553523 
435.912416  	0.547271 
437.841232  	0.548259 
439.770048  	0.546135 
441.698864  	0.549293 
443.627680  	0.548070 
445.556496  	0.546628 
447.485312  	0.542514 
449.414128  	0.542056 
451.342944  	0.539012 
453.271760  	0.541505 
455.200576  	0.539120 
457.129392  	0.539967 
459.058208  	0.536079 
460.987024  	0.537612 
462.915840  	0.536484 
464.844656  	0.536546 
466.773472  	0.531696 
468.702288  	0.532849 
470.631104  	0.532983 
472.559920  	0.532182 
474.488736  	0.529940 
476.417552  	0.535199 
478.346368  	0.533067 
480.275184  	0.530223 
482.204000  	0.524870 
484.132816  	0.525943 
486.061632  	0.525407 
487.990448  	0.525866 
489.919264  	0.523981 
491.848080  	0.528804 
493.776896  	0.525816 
495.705712  	0.521493 
497.634528  	0.518538 
499.563344  	0.517665 
501.492160  	0.514913 
503.420976  	0.516623 
505.349792  	0.514963 
507.278608  	0.516109 
509.207424  	0.516896 
511.136240  	0.517933 
513.065056  	0.516161 
514.993872  	0.518775 
516.922688  	0.519381 
518.851504  	0.521038 
520.780320  	0.518859 
522.709136  	0.518586 
524.637952  	0.518191 
526.566768  	0.517464 
528.495584  	0.513459 
530.424400  	0.511639 
532.353216  	0.508334 
534.282032  	0.505105 
536.210848  	0.499755 
538.139664  	0.494472 
540.068480  	0.487808 
541.997296  	0.485028 
543.926112  	0.480201 
545.854928  	0.477167 
547.783744  	0.474362 
549.712560  	0.472101 
551.641376  	0.468552 
553.570192  	0.465121 
555.499008  	0.462320 
557.427824  	0.460310 
559.356640  	0.454892 
561.285456  	0.450288 
563.214272  	0.446229 
565.143088  	0.443549 
567.071904  	0.439943 
569.000720  	0.437337 
570.929536  	0.434328 
572.858352  	0.432032 
574.787168  	0.428043 
576.715984  	0.425617 
578.644800  	0.422403 
580.573616  	0.418400 
582.502432  	0.413367 
584.431248  	0.409777 
586.360064  	0.407117 
588.288880  	0.405351 
590.217696  	0.402747 
592.146512  	0.400237 
594.075328  	0.397272 
596.004144  	0.394964 
597.932960  	0.393076 
599.861776  	0.391397 
601.790592  	0.389491 
603.719408  	0.388330 
605.648224  	0.386756 
607.577040  	0.385978 
609.505856  	0.384159 
611.434672  	0.382025 
613.363488  	0.379423 
615.292304  	0.377723 
617.221120  	0.376076 
619.149936  	0.374451 
621.078752  	0.372414 
623.007568  	0.371507 
624.936384  	0.370296 
626.865200  	0.368946 
628.794016  	0.366974 
630.722832  	0.366366 
632.651648  	0.366413 
634.580464  	0.366037 
636.509280  	0.365671 
638.438096  	0.365441 
640.366912  	0.363849 
642.295728  	0.362676 
644.224544  	0.360789 
646.153360  	0.357850 
648.082176  	0.353284 
650.010992  	0.349875 
651.939808  	0.346454 
653.868624  	0.342144 
655.797440  	0.337934 
657.726256  	0.334581 
659.655072  	0.331077 
661.583888  	0.327522 
663.512704  	0.323497 
665.441520  	0.320917 
667.370336  	0.314953 
669.299152  	0.307955 
671.227968  	0.307432 
673.156784  	0.305407 
675.085600  	0.302262 
677.014416  	0.299509 
678.943232  	0.297729 
680.872048  	0.296355 
682.800864  	0.294419 
684.729680  	0.292500 
686.658496  	0.290693 
688.587312  	0.288887 
690.516128  	0.286971 
692.444944  	0.285567 
694.373760  	0.284504 
696.302576  	0.282734 
698.231392  	0.279935 
700.160208  	0.277658 
702.089024  	0.275943 
704.017840  	0.273952 
705.946656  	0.271334 
707.875472  	0.268656 
709.804288  	0.266543 
711.733104  	0.264833 
713.661920  	0.262690 
715.590736  	0.260910 
717.519552  	0.260387 
719.448368  	0.260620 
721.377184  	0.260532 
723.306000  	0.260788 
725.234816  	0.260650 
727.163632  	0.259940 
729.092448  	0.258140 
731.021264  	0.255259 
732.950080  	0.251789 
734.878896  	0.248713 
736.807712  	0.245970 
738.736528  	0.243644 
740.665344  	0.241524 
742.594160  	0.239788 
744.522976  	0.238065 
746.451792  	0.236365 
748.380608  	0.234834 
750.309424  	0.233360 
752.238240  	0.232170 
754.167056  	0.231466 
756.095872  	0.230110 
758.024688  	0.229057 
759.953504  	0.228420 
761.882320  	0.228477 
763.811136  	0.228639 
765.739952  	0.227779 
767.668768  	0.225476 
769.597584  	0.223193 
771.526400  	0.221993 
773.455216  	0.222884 
775.384032  	0.225915 
777.312848  	0.230108 
779.241664  	0.233621 
781.170480  	0.234164 
783.099296  	0.230751 
785.028112  	0.225223 
786.956928  	0.219560 
788.885744  	0.214751 
790.814560  	0.211295 
792.743376  	0.208915 
794.672192  	0.207486 
796.601008  	0.206433 
798.529824  	0.203701 
800.458640  	0.199519 
802.387456  	0.195871 
804.316272  	0.193722 
806.245088  	0.192348 
808.173904  	0.191299 
810.102720  	0.190781 
812.031536  	0.190718 
813.960352  	0.191090 
815.889168  	0.191313 
817.817984  	0.191243 
819.746800  	0.191141 
821.675616  	0.190819 
823.604432  	0.190535 
825.533248  	0.190056 
827.462064  	0.189475 
829.390880  	0.188467 
831.319696  	0.186949 
833.248512  	0.185187 
835.177328  	0.182799 
837.106144  	0.180154 
839.034960  	0.177274 
840.963776  	0.173914 
842.892592  	0.170590 
844.821408  	0.167100 
846.750224  	0.163959 
848.679040  	0.161382 
850.607856  	0.159215 
852.536672  	0.157396 
854.465488  	0.155810 
856.394304  	0.154512 
858.323120  	0.153180 
860.251936  	0.151214 
862.180752  	0.148858 
864.109568  	0.146232 
866.038384  	0.143747 
867.967200  	0.141836 
869.896016  	0.140162 
871.824832  	0.139196 
873.753648  	0.138771 
875.682464  	0.139119 
877.611280  	0.139479 
879.540096  	0.139954 
881.468912  	0.141656 
883.397728  	0.142902 
885.326544  	0.143665 
887.255360  	0.143875 
889.184176  	0.142876 
891.112992  	0.140630 
893.041808  	0.138650 
894.970624  	0.136447 
896.899440  	0.133420 
898.828256  	0.129611 
900.757072  	0.125918 
902.685888  	0.123158 
904.614704  	0.121633 
906.543520  	0.121625 
908.472336  	0.122809 
910.401152  	0.125023 
912.329968  	0.127675 
914.258784  	0.130474 
916.187600  	0.132995 
918.116416  	0.134956 
920.045232  	0.136450 
921.974048  	0.137330 
923.902864  	0.137550 
925.831680  	0.137350 
927.760496  	0.137028 
929.689312  	0.136910 
931.618128  	0.137483 
933.546944  	0.137780 
935.475760  	0.137850 
937.404576  	0.137695 
939.333392  	0.137101 
941.262208  	0.137045 
943.191024  	0.138324 
945.119840  	0.141403 
947.048656  	0.146422 
948.977472  	0.153139 
950.906288  	0.161479 
952.835104  	0.170749 
954.763920  	0.180653 
956.692736  	0.190233 
958.621552  	0.198501 
960.550368  	0.204268 
962.479184  	0.207178 
964.408000  	0.206464 
966.336816  	0.202309 
968.265632  	0.194886 
970.194448  	0.184975 
972.123264  	0.173281 
974.052080  	0.160726 
975.980896  	0.148429 
977.909712  	0.136974 
979.838528  	0.126562 
981.767344  	0.118011 
983.696160  	0.111560 
985.624976  	0.107418 
987.553792  	0.105911 
989.482608  	0.106798 
991.411424  	0.109698 
993.340240  	0.114122 
995.269056  	0.119818 
997.197872  	0.126094 
999.126688  	0.132324 
1001.055504  	0.138576 
1002.984320  	0.144795 
1004.913136  	0.150894 
1006.841952  	0.156776 
1008.770768  	0.161916 
1010.699584  	0.165493 
1012.628400  	0.167539 
1014.557216  	0.168420 
1016.486032  	0.168636 
1018.414848  	0.168411 
1020.343664  	0.167958 
1022.272480  	0.167213 
1024.201296  	0.166048 
1026.130112  	0.162866 
1028.058928  	0.161504 
1029.987744  	0.164152 
1031.916560  	0.165816 
1033.845376  	0.166639 
1035.774192  	0.167261 
1037.703008  	0.169352 
1039.631824  	0.174908 
1041.560640  	0.182773 
1043.489456  	0.193211 
1045.418272  	0.206114 
1047.347088  	0.220980 
1049.275904  	0.235178 
1051.204720  	0.247172 
1053.133536  	0.255193 
1055.062352  	0.259522 
1056.991168  	0.260467 
1058.919984  	0.262641 
1060.848800  	0.264677 
1062.777616  	0.263061 
1064.706432  	0.257241 
1066.635248  	0.252101 
1068.564064  	0.250458 
1070.492880  	0.246227 
1072.421696  	0.238927 
1074.350512  	0.233451 
1076.279328  	0.231324 
1078.208144  	0.233161 
1080.136960  	0.237528 
1082.065776  	0.242938 
1083.994592  	0.246870 
1085.923408  	0.248582 
1087.852224  	0.247024 
1089.781040  	0.243543 
1091.709856  	0.238693 
1093.638672  	0.231326 
1095.567488  	0.221150 
1097.496304  	0.209598 
1099.425120  	0.197581 
1101.353936  	0.185547 
1103.282752  	0.173655 
1105.211568  	0.162207 
1107.140384  	0.151158 
1109.069200  	0.140561 
1110.998016  	0.130955 
1112.926832  	0.122259 
1114.855648  	0.114279 
1116.784464  	0.106709 
1118.713280  	0.099490 
1120.642096  	0.092769 
1122.570912  	0.086466 
1124.499728  	0.080563 
1126.428544  	0.075525 
1128.357360  	0.070953 
1130.286176  	0.067220 
1132.214992  	0.063861 
1134.143808  	0.061027 
1136.072624  	0.058550 
1138.001440  	0.056430 
1139.930256  	0.054190 
1141.859072  	0.051995 
1143.787888  	0.049743 
1145.716704  	0.047583 
1147.645520  	0.045431 
1149.574336  	0.043718 
1151.503152  	0.042430 
1153.431968  	0.042089 
1155.360784  	0.042125 
1157.289600  	0.042702 
1159.218416  	0.044047 
1161.147232  	0.045849 
1163.076048  	0.047716 
1165.004864  	0.049934 
1166.933680  	0.052008 
1168.862496  	0.054273 
1170.791312  	0.056467 
1172.720128  	0.059000 
1174.648944  	0.061496 
1176.577760  	0.064138 
1178.506576  	0.066564 
1180.435392  	0.068974 
1182.364208  	0.071300 
1184.293024  	0.074211 
1186.221840  	0.077406 
1188.150656  	0.081030 
1190.079472  	0.085100 
1192.008288  	0.090175 
1193.937104  	0.096245 
1195.865920  	0.103113 
1197.794736  	0.110677 
1199.723552  	0.119159 
1201.652368  	0.127906 
1203.581184  	0.136816 
1205.510000  	0.145539 
1207.438816  	0.153806 
1209.367632  	0.161585 
1211.296448  	0.168502 
1213.225264  	0.174336 
1215.154080  	0.178872 
1217.082896  	0.182275 
1219.011712  	0.184271 
1220.940528  	0.185809 
1222.869344  	0.186952 
1224.798160  	0.187229 
1226.726976  	0.186690 
1228.655792  	0.185882 
1230.584608  	0.184479 
1232.513424  	0.182522 
1234.442240  	0.179964 
1236.371056  	0.176559 
1238.299872  	0.172032 
1240.228688  	0.165487 
1242.157504  	0.158697 
1244.086320  	0.152867 
1246.015136  	0.145658 
1247.943952  	0.137747 
1249.872768  	0.129876 
1251.801584  	0.123112 
1253.730400  	0.116281 
1255.659216  	0.109505 
1257.588032  	0.103133 
1259.516848  	0.096992 
1261.445664  	0.091306 
1263.374480  	0.086376 
1265.303296  	0.082196 
1267.232112  	0.078759 
1269.160928  	0.076095 
1271.089744  	0.074100 
1273.018560  	0.073006 
1274.947376  	0.072724 
1276.876192  	0.072939 
1278.805008  	0.072820 
1280.733824  	0.071777 
1282.662640  	0.069999 
1284.591456  	0.067845 
1286.520272  	0.065733 
1288.449088  	0.064179 
1290.377904  	0.063405 
1292.306720  	0.063503 
1294.235536  	0.063518 
1296.164352  	0.062568 
1298.093168  	0.060397 
1300.021984  	0.057601 
1301.950800  	0.054598 
1303.879616  	0.051753 
1305.808432  	0.048710 
1307.737248  	0.045664 
1309.666064  	0.042838 
1311.594880  	0.040560 
1313.523696  	0.038765 
1315.452512  	0.037676 
1317.381328  	0.036970 
1319.310144  	0.036815 
1321.238960  	0.037064 
1323.167776  	0.037850 
1325.096592  	0.038724 
1327.025408  	0.039415 
1328.954224  	0.039489 
1330.883040  	0.039058 
1332.811856  	0.038186 
1334.740672  	0.037517 
1336.669488  	0.037116 
1338.598304  	0.036688 
1340.527120  	0.035534 
1342.455936  	0.034719 
1344.384752  	0.034473 
1346.313568  	0.034696 
1348.242384  	0.035271 
1350.171200  	0.036448 
1352.100016  	0.037903 
1354.028832  	0.039625 
1355.957648  	0.041254 
1357.886464  	0.043190 
1359.815280  	0.045291 
1361.744096  	0.047117 
1363.672912  	0.048258 
1365.601728  	0.049646 
1367.530544  	0.050873 
1369.459360  	0.051147 
1371.388176  	0.051025 
1373.316992  	0.049848 
1375.245808  	0.046821 
1377.174624  	0.044281 
1379.103440  	0.041431 
1381.032256  	0.038743 
1382.961072  	0.036835 
1384.889888  	0.036111 
1386.818704  	0.035121 
1388.747520  	0.033341 
1390.676336  	0.031362 
1392.605152  	0.028470 
1394.533968  	0.026519 
1396.462784  	0.028907 
1398.391600  	0.030169 
1400.320416  	0.029680 
1402.249232  	0.030003 
1404.178048  	0.030380 
1406.106864  	0.030812 
1408.035680  	0.032701 
1409.964496  	0.035033 
1411.893312  	0.037713 
1413.822128  	0.040762 
1415.750944  	0.044106 
1417.679760  	0.046315 
1419.608576  	0.046248 
1421.537392  	0.046794 
1423.466208  	0.046880 
1425.395024  	0.045167 
1427.323840  	0.044101 
1429.252656  	0.041987 
1431.181472  	0.040242 
1433.110288  	0.040130 
1435.039104  	0.041064 
1436.967920  	0.040197 
1438.896736  	0.040694 
1440.825552  	0.041729 
1442.754368  	0.042232 
1444.683184  	0.042475 
1446.612000  	0.042545 
1448.540816  	0.041344 
1450.469632  	0.041629 
1452.398448  	0.042530 
1454.327264  	0.043969 
1456.256080  	0.043994 
1458.184896  	0.041443 
1460.113712  	0.042259 
1462.042528  	0.043903 
1463.971344  	0.044169 
1465.900160  	0.044266 
1467.828976  	0.046551 
1469.757792  	0.050144 
1471.686608  	0.053584 
1473.615424  	0.058188 
1475.544240  	0.063583 
1477.473056  	0.068708 
1479.401872  	0.072674 
1481.330688  	0.075680 
1483.259504  	0.077703 
1485.188320  	0.079342 
1487.117136  	0.079456 
1489.045952  	0.078564 
1490.974768  	0.075395 
1492.903584  	0.073579 
1494.832400  	0.071135 
1496.761216  	0.065411 
1498.690032  	0.059524 
1500.618848  	0.055410 
1502.547664  	0.052445 
1504.476480  	0.050339 
1506.405296  	0.044627 
1508.334112  	0.038954 
1510.262928  	0.038839 
1512.191744  	0.037796 
1514.120560  	0.037421 
1516.049376  	0.037278 
1517.978192  	0.036822 
1519.907008  	0.038750 
1521.835824  	0.039346 
1523.764640  	0.042452 
1525.693456  	0.045775 
1527.622272  	0.047599 
1529.551088  	0.048592 
1531.479904  	0.048847 
1533.408720  	0.045660 
1535.337536  	0.042531 
1537.266352  	0.042235 
1539.195168  	0.037898 
1541.123984  	0.030815 
1543.052800  	0.030406 
1544.981616  	0.029388 
1546.910432  	0.029063 
1548.839248  	0.029387 
1550.768064  	0.029247 
1552.696880  	0.030019 
1554.625696  	0.031031 
1556.554512  	0.032699 
1558.483328  	0.032826 
1560.412144  	0.033341 
1562.340960  	0.039034 
1564.269776  	0.042838 
1566.198592  	0.047673 
1568.127408  	0.052069 
1570.056224  	0.056673 
1571.985040  	0.062532 
1573.913856  	0.067648 
1575.842672  	0.069353 
1577.771488  	0.070832 
1579.700304  	0.072143 
1581.629120  	0.071973 
1583.557936  	0.071274 
1585.486752  	0.072028 
1587.415568  	0.074135 
1589.344384  	0.078093 
1591.273200  	0.083570 
1593.202016  	0.090364 
1595.130832  	0.097290 
1597.059648  	0.104618 
1598.988464  	0.110939 
1600.917280  	0.116632 
1602.846096  	0.120291 
1604.774912  	0.122681 
1606.703728  	0.122995 
1608.632544  	0.122243 
1610.561360  	0.120288 
1612.490176  	0.119099 
1614.418992  	0.117892 
1616.347808  	0.116015 
1618.276624  	0.116041 
1620.205440  	0.119978 
1622.134256  	0.123275 
1624.063072  	0.128747 
1625.991888  	0.135132 
1627.920704  	0.142902 
1629.849520  	0.151834 
1631.778336  	0.161002 
1633.707152  	0.168287 
1635.635968  	0.176384 
1637.564784  	0.185244 
1639.493600  	0.192626 
1641.422416  	0.197923 
1643.351232  	0.202469 
1645.280048  	0.204265 
1647.208864  	0.204449 
1649.137680  	0.205296 
1651.066496  	0.206742 
1652.995312  	0.201050 
1654.924128  	0.197996 
1656.852944  	0.198151 
1658.781760  	0.196398 
1660.710576  	0.193342 
1662.639392  	0.188605 
1664.568208  	0.184304 
1666.497024  	0.182231 
1668.425840  	0.177529 
1670.354656  	0.170987 
1672.283472  	0.167842 
1674.212288  	0.165310 
1676.141104  	0.160242 
1678.069920  	0.159300 
1679.998736  	0.158327 
1681.927552  	0.157769 
1683.856368  	0.154047 
1685.785184  	0.152002 
1687.714000  	0.153475 
1689.642816  	0.152842 
1691.571632  	0.151668 
1693.500448  	0.151385 
1695.429264  	0.147828 
1697.358080  	0.144730 
1699.286896  	0.143049 
1701.215712  	0.136453 
1703.144528  	0.135583 
1705.073344  	0.131931 
1707.002160  	0.125746 
1708.930976  	0.121232 
1710.859792  	0.115492 
1712.788608  	0.109275 
1714.717424  	0.101743 
1716.646240  	0.091936 
1718.575056  	0.078458 
1720.503872  	0.070725 
1722.432688  	0.064515 
1724.361504  	0.055737 
1726.290320  	0.048596 
1728.219136  	0.042688 
1730.147952  	0.037460 
1732.076768  	0.033631 
1734.005584  	0.027184 
1735.934400  	0.021631 
1737.863216  	0.022008 
1739.792032  	0.018862 
1741.720848  	0.017195 
1743.649664  	0.015992 
1745.578480  	0.015359 
1747.507296  	0.014301 
1749.436112  	0.013178 
1751.364928  	0.011209 
1753.293744  	0.010825 
1755.222560  	0.011133 
1757.151376  	0.010118 
1759.080192  	0.009687 
1761.009008  	0.009472 
1762.937824  	0.007752 
1764.866640  	0.008207 
1766.795456  	0.008548 
1768.724272  	0.008104 
1770.653088  	0.007561 
1772.581904  	0.005548 
1774.510720  	0.005344 
1776.439536  	0.006391 
1778.368352  	0.006525 
1780.297168  	0.006150 
1782.225984  	0.005557 
1784.154800  	0.005829 
1786.083616  	0.005214 
1788.012432  	0.005708 
1789.941248  	0.006163 
1791.870064  	0.005185 
1793.798880  	0.003678 
1795.727696  	0.004631 
1797.656512  	0.004680 
1799.585328  	0.004726 
1801.514144  	0.004074 
1803.442960  	0.004189 
1805.371776  	0.004171 
1807.300592  	0.004476 
1809.229408  	0.004117 
1811.158224  	0.003597 
1813.087040  	0.003256 
1815.015856  	0.003817 
1816.944672  	0.003636 
1818.873488  	0.003623 
1820.802304  	0.003621 
1822.731120  	0.004409 
1824.659936  	0.003782 
1826.588752  	0.003250 
1828.517568  	0.003341 
1830.446384  	0.002533 
1832.375200  	0.002518 
1834.304016  	0.003228 
1836.232832  	0.003216 
1838.161648  	0.003337 
1840.090464  	0.003314 
1842.019280  	0.004287 
1843.948096  	0.003001 
1845.876912  	0.002396 
1847.805728  	0.002976 
1849.734544  	0.003255 
1851.663360  	0.003099 
1853.592176  	0.002971 
1855.520992  	0.002725 
1857.449808  	0.003171 
1859.378624  	0.003179 
1861.307440  	0.003045 
1863.236256  	0.002719 
1865.165072  	0.003090 
1867.093888  	0.003222 
1869.022704  	0.002735 
1870.951520  	0.002028 
1872.880336  	0.002619 
1874.809152  	0.002471 
1876.737968  	0.002364 
1878.666784  	0.002062 
1880.595600  	0.002537 
1882.524416  	0.002420 
1884.453232  	0.002561 
1886.382048  	0.002386 
1888.310864  	0.002680 
1890.239680  	0.002024 
1892.168496  	0.002289 
1894.097312  	0.002541 
1896.026128  	0.002753 
1897.954944  	0.002524 
1899.883760  	0.002604 
1901.812576  	0.002120 
1903.741392  	0.002319 
1905.670208  	0.002353 
1907.599024  	0.002657 
1909.527840  	0.002325 
1911.456656  	0.002627 
1913.385472  	0.002739 
1915.314288  	0.003419 
1917.243104  	0.002878 
1919.171920  	0.002314 
1921.100736  	0.002314 
1923.029552  	0.002657 
1924.958368  	0.002566 
1926.887184  	0.003003 
1928.816000  	0.002529 
1930.744816  	0.002345 
1932.673632  	0.001655 
1934.602448  	0.002106 
1936.531264  	0.002695 
1938.460080  	0.003273 
1940.388896  	0.002888 
1942.317712  	0.002488 
1944.246528  	0.002074 
1946.175344  	0.003112 
1948.104160  	0.002847 
1950.032976  	0.003105 
1951.961792  	0.002812 
1953.890608  	0.002247 
1955.819424  	0.001332 
1957.748240  	0.002681 
1959.677056  	0.002687 
1961.605872  	0.002826 
1963.534688  	0.002302 
1965.463504  	0.002989 
1967.392320  	0.002580 
1969.321136  	0.002573 
1971.249952  	0.002864 
1973.178768  	0.005016 
1975.107584  	0.004871 
1977.036400  	0.005114 
1978.965216  	0.004163 
1980.894032  	0.003611 
1982.822848  	0.003427 
1984.751664  	0.004405 
1986.680480  	0.003219 
1988.609296  	0.003078 
1990.538112  	0.002166 
1992.466928  	0.002893 
1994.395744  	0.003420 
1996.324560  	0.003550 
1998.253376  	0.002299 
2000.182192  	0.002225 
2002.111008  	0.003185 
2004.039824  	0.004358 
2005.968640  	0.003051 
2007.897456  	0.003433 
2009.826272  	0.003185 
2011.755088  	0.004180 
2013.683904  	0.002894 
2015.612720  	0.002786 
2017.541536  	0.003113 
2019.470352  	0.003757 
2021.399168  	0.002981 
2023.327984  	0.003270 
2025.256800  	0.003334 
2027.185616  	0.004092 
2029.114432  	0.004682 
2031.043248  	0.005063 
2032.972064  	0.003392 
2034.900880  	0.004194 
2036.829696  	0.003983 
2038.758512  	0.004426 
2040.687328  	0.004038 
2042.616144  	0.004141 
2044.544960  	0.003770 
2046.473776  	0.004298 
2048.402592  	0.003650 
2050.331408  	0.003732 
2052.260224  	0.003329 
2054.189040  	0.003219 
2056.117856  	0.002817 
2058.046672  	0.003013 
2059.975488  	0.002730 
2061.904304  	0.002708 
2063.833120  	0.002393 
2065.761936  	0.002690 
2067.690752  	0.002315 
2069.619568  	0.002707 
2071.548384  	0.002992 
2073.477200  	0.002802 
2075.406016  	0.002541 
2077.334832  	0.003158 
2079.263648  	0.003094 
2081.192464  	0.003085 
2083.121280  	0.003039 
2085.050096  	0.002888 
2086.978912  	0.002364 
2088.907728  	0.002622 
2090.836544  	0.002837 
2092.765360  	0.003191 
2094.694176  	0.003344 
2096.622992  	0.003289 
2098.551808  	0.003101 
2100.480624  	0.003849 
2102.409440  	0.003362 
2104.338256  	0.002863 
2106.267072  	0.003238 
2108.195888  	0.003563 
2110.124704  	0.003015 
2112.053520  	0.003239 
2113.982336  	0.003451 
2115.911152  	0.003426 
2117.839968  	0.003108 
2119.768784  	0.003011 
2121.697600  	0.002426 
2123.626416  	0.002503 
2125.555232  	0.002527 
2127.484048  	0.002663 
2129.412864  	0.002338 
2131.341680  	0.002299 
2133.270496  	0.002410 
2135.199312  	0.003449 
2137.128128  	0.003690 
2139.056944  	0.003719 
2140.985760  	0.003302 
2142.914576  	0.003502 
2144.843392  	0.003186 
2146.772208  	0.003497 
2148.701024  	0.003531 
2150.629840  	0.004424 
2152.558656  	0.004548 
2154.487472  	0.004652 
2156.416288  	0.004179 
2158.345104  	0.004639 
2160.273920  	0.005424 
2162.202736  	0.006581 
2164.131552  	0.006432 
2166.060368  	0.006414 
2167.989184  	0.006322 
2169.918000  	0.007232 
2171.846816  	0.006646 
2173.775632  	0.006269 
2175.704448  	0.005808 
2177.633264  	0.005991 
2179.562080  	0.005336 
2181.490896  	0.005118 
2183.419712  	0.003973 
2185.348528  	0.004057 
2187.277344  	0.004190 
2189.206160  	0.003815 
2191.134976  	0.003244 
2193.063792  	0.004234 
2194.992608  	0.004501 
2196.921424  	0.004499 
2198.850240  	0.004370 
2200.779056  	0.004238 
2202.707872  	0.003661 
2204.636688  	0.003618 
2206.565504  	0.004262 
2208.494320  	0.004750 
2210.423136  	0.003676 
2212.351952  	0.003484 
2214.280768  	0.002968 
2216.209584  	0.002762 
2218.138400  	0.002658 
2220.067216  	0.003545 
2221.996032  	0.003868 
2223.924848  	0.003982 
2225.853664  	0.003620 
2227.782480  	0.003266 
2229.711296  	0.002938 
2231.640112  	0.002955 
2233.568928  	0.002697 
2235.497744  	0.003075 
2237.426560  	0.002754 
2239.355376  	0.002809 
2241.284192  	0.003054 
2243.213008  	0.003296 
2245.141824  	0.002922 
2247.070640  	0.003117 
2248.999456  	0.002706 
2250.928272  	0.002557 
2252.857088  	0.002294 
2254.785904  	0.001978 
2256.714720  	0.001376 
2258.643536  	0.001619 
2260.572352  	0.001783 
2262.501168  	0.001655 
2264.429984  	0.001545 
2266.358800  	0.001814 
2268.287616  	0.002075 
2270.216432  	0.002328 
2272.145248  	0.002297 
2274.074064  	0.001944 
2276.002880  	0.001825 
2277.931696  	0.002214 
2279.860512  	0.002269 
2281.789328  	0.002263 
2283.718144  	0.002241 
2285.646960  	0.002468 
2287.575776  	0.002515 
2289.504592  	0.002186 
2291.433408  	0.001758 
2293.362224  	0.001806 
2295.291040  	0.002014 
2297.219856  	0.002121 
2299.148672  	0.001940 
2301.077488  	0.001891 
2303.006304  	0.001669 
2304.935120  	0.001627 
2306.863936  	0.001443 
2308.792752  	0.001281 
2310.721568  	0.000835 
2312.650384  	0.000562 
2314.579200  	0.000390 
2316.508016  	-0.000128 
2318.436832  	-0.000951 
2320.365648  	-0.001885 
2322.294464  	-0.002714 
2324.223280  	-0.003579 
2326.152096  	-0.004722 
2328.080912  	-0.005507 
2330.009728  	-0.006544 
2331.938544  	-0.007567 
2333.867360  	-0.008045 
2335.796176  	-0.008451 
2337.724992  	-0.009023 
2339.653808  	-0.009254 
2341.582624  	-0.009885 
2343.511440  	-0.010101 
2345.440256  	-0.009227 
2347.369072  	-0.006004 
2349.297888  	-0.003503 
2351.226704  	-0.004480 
2353.155520  	-0.007723 
2355.084336  	-0.009966 
2357.013152  	-0.011665 
2358.941968  	-0.012671 
2360.870784  	-0.014049 
2362.799600  	-0.014084 
2364.728416  	-0.013492 
2366.657232  	-0.012171 
2368.586048  	-0.010368 
2370.514864  	-0.008421 
2372.443680  	-0.006713 
2374.372496  	-0.004683 
2376.301312  	-0.002725 
2378.230128  	-0.001373 
2380.158944  	-0.000585 
2382.087760  	0.000083 
2384.016576  	0.000641 
2385.945392  	0.001023 
2387.874208  	0.001241 
2389.803024  	0.001326 
2391.731840  	0.001200 
2393.660656  	0.001133 
2395.589472  	0.000985 
2397.518288  	0.001139 
2399.447104  	0.001147 
2401.375920  	0.001038 
2403.304736  	0.000974 
2405.233552  	0.001146 
2407.162368  	0.001077 
2409.091184  	0.001239 
2411.020000  	0.001250 
2412.948816  	0.001203 
2414.877632  	0.001278 
2416.806448  	0.001456 
2418.735264  	0.001253 
2420.664080  	0.001139 
2422.592896  	0.001212 
2424.521712  	0.001418 
2426.450528  	0.001275 
2428.379344  	0.001280 
2430.308160  	0.001390 
2432.236976  	0.001641 
2434.165792  	0.001539 
2436.094608  	0.001465 
2438.023424  	0.001632 
2439.952240  	0.001657 
2441.881056  	0.001414 
2443.809872  	0.001437 
2445.738688  	0.001648 
2447.667504  	0.001877 
2449.596320  	0.001887 
2451.525136  	0.001945 
2453.453952  	0.001877 
2455.382768  	0.001821 
2457.311584  	0.001744 
2459.240400  	0.001607 
2461.169216  	0.001509 
2463.098032  	0.001621 
2465.026848  	0.001749 
2466.955664  	0.001683 
2468.884480  	0.001441 
2470.813296  	0.001483 
2472.742112  	0.001594 
2474.670928  	0.001586 
2476.599744  	0.001713 
2478.528560  	0.002035 
2480.457376  	0.001860 
2482.386192  	0.001793 
2484.315008  	0.001875 
2486.243824  	0.001820 
2488.172640  	0.001874 
2490.101456  	0.002115 
2492.030272  	0.002201 
2493.959088  	0.002381 
2495.887904  	0.002322 
2497.816720  	0.002195 
2499.745536  	0.002278 
2501.674352  	0.002406 
2503.603168  	0.002526 
2505.531984  	0.002655 
2507.460800  	0.002402 
2509.389616  	0.002259 
2511.318432  	0.002436 
2513.247248  	0.002606 
2515.176064  	0.002662 
2517.104880  	0.002893 
2519.033696  	0.002870 
2520.962512  	0.002977 
2522.891328  	0.003064 
2524.820144  	0.002908 
2526.748960  	0.002858 
2528.677776  	0.003007 
2530.606592  	0.003135 
2532.535408  	0.003231 
2534.464224  	0.003260 
2536.393040  	0.003210 
2538.321856  	0.003237 
2540.250672  	0.003427 
2542.179488  	0.003350 
2544.108304  	0.003282 
2546.037120  	0.003240 
2547.965936  	0.003281 
2549.894752  	0.003307 
2551.823568  	0.003291 
2553.752384  	0.003561 
2555.681200  	0.003920 
2557.610016  	0.003826 
2559.538832  	0.003894 
2561.467648  	0.004053 
2563.396464  	0.004170 
2565.325280  	0.004278 
2567.254096  	0.004152 
2569.182912  	0.004034 
2571.111728  	0.004169 
2573.040544  	0.004117 
2574.969360  	0.004298 
2576.898176  	0.004691 
2578.826992  	0.004614 
2580.755808  	0.004359 
2582.684624  	0.004498 
2584.613440  	0.004781 
2586.542256  	0.004861 
2588.471072  	0.004866 
2590.399888  	0.005021 
2592.328704  	0.004990 
2594.257520  	0.004822 
2596.186336  	0.004917 
2598.115152  	0.005011 
2600.043968  	0.004954 
2601.972784  	0.005193 
2603.901600  	0.005288 
2605.830416  	0.005439 
2607.759232  	0.005536 
2609.688048  	0.005491 
2611.616864  	0.005606 
2613.545680  	0.005837 
2615.474496  	0.005974 
2617.403312  	0.006013 
2619.332128  	0.006040 
2621.260944  	0.006048 
2623.189760  	0.006011 
2625.118576  	0.006143 
2627.047392  	0.006180 
2628.976208  	0.006205 
2630.905024  	0.006348 
2632.833840  	0.006411 
2634.762656  	0.006452 
2636.691472  	0.006520 
2638.620288  	0.006631 
2640.549104  	0.006737 
2642.477920  	0.006825 
2644.406736  	0.006979 
2646.335552  	0.007105 
2648.264368  	0.007207 
2650.193184  	0.007288 
2652.122000  	0.007452 
2654.050816  	0.007569 
2655.979632  	0.007723 
2657.908448  	0.007851 
2659.837264  	0.008001 
2661.766080  	0.008096 
2663.694896  	0.008161 
2665.623712  	0.008170 
2667.552528  	0.008291 
2669.481344  	0.008384 
2671.410160  	0.008419 
2673.338976  	0.008444 
2675.267792  	0.008575 
2677.196608  	0.008771 
2679.125424  	0.008889 
2681.054240  	0.009015 
2682.983056  	0.009143 
2684.911872  	0.009179 
2686.840688  	0.009239 
2688.769504  	0.009353 
2690.698320  	0.009453 
2692.627136  	0.009513 
2694.555952  	0.009626 
2696.484768  	0.009731 
2698.413584  	0.009882 
2700.342400  	0.009889 
2702.271216  	0.009981 
2704.200032  	0.010204 
2706.128848  	0.010350 
2708.057664  	0.010421 
2709.986480  	0.010529 
2711.915296  	0.010529 
2713.844112  	0.010663 
2715.772928  	0.010745 
2717.701744  	0.010844 
2719.630560  	0.011044 
2721.559376  	0.011140 
2723.488192  	0.011151 
2725.417008  	0.011285 
2727.345824  	0.011460 
2729.274640  	0.011659 
2731.203456  	0.011781 
2733.132272  	0.011874 
2735.061088  	0.011949 
2736.989904  	0.012098 
2738.918720  	0.012131 
2740.847536  	0.012200 
2742.776352  	0.012289 
2744.705168  	0.012430 
2746.633984  	0.012506 
2748.562800  	0.012505 
2750.491616  	0.012507 
2752.420432  	0.012686 
2754.349248  	0.012705 
2756.278064  	0.012638 
2758.206880  	0.012550 
2760.135696  	0.012506 
2762.064512  	0.012631 
2763.993328  	0.012784 
2765.922144  	0.012703 
2767.850960  	0.012736 
2769.779776  	0.012825 
2771.708592  	0.012868 
2773.637408  	0.012782 
2775.566224  	0.012735 
2777.495040  	0.012725 
2779.423856  	0.012807 
2781.352672  	0.012806 
2783.281488  	0.012640 
2785.210304  	0.012628 
2787.139120  	0.012732 
2789.067936  	0.012801 
2790.996752  	0.012846 
2792.925568  	0.012717 
2794.854384  	0.012654 
2796.783200  	0.012594 
2798.712016  	0.012482 
2800.640832  	0.012443 
2802.569648  	0.012591 
2804.498464  	0.012706 
2806.427280  	0.012653 
2808.356096  	0.012602 
2810.284912  	0.012666 
2812.213728  	0.012682 
2814.142544  	0.012637 
2816.071360  	0.012669 
2818.000176  	0.012616 
2819.928992  	0.012538 
2821.857808  	0.012432 
2823.786624  	0.012248 
2825.715440  	0.012212 
2827.644256  	0.012110 
2829.573072  	0.012054 
2831.501888  	0.011754 
2833.430704  	0.011353 
2835.359520  	0.011049 
2837.288336  	0.010721 
2839.217152  	0.010393 
2841.145968  	0.010133 
2843.074784  	0.009710 
2845.003600  	0.009192 
2846.932416  	0.008873 
2848.861232  	0.008531 
2850.790048  	0.008011 
2852.718864  	0.007551 
2854.647680  	0.007209 
2856.576496  	0.006635 
2858.505312  	0.005936 
2860.434128  	0.005337 
2862.362944  	0.004712 
2864.291760  	0.003984 
2866.220576  	0.003337 
2868.149392  	0.003038 
2870.078208  	0.002832 
2872.007024  	0.002749 
2873.935840  	0.002796 
2875.864656  	0.002830 
2877.793472  	0.002811 
2879.722288  	0.002722 
2881.651104  	0.002330 
2883.579920  	0.002088 
2885.508736  	0.002187 
2887.437552  	0.002470 
2889.366368  	0.002561 
2891.295184  	0.002342 
2893.224000  	0.002081 
2895.152816  	0.002097 
2897.081632  	0.001832 
2899.010448  	0.000116 
2900.939264  	-0.001342 
2902.868080  	-0.000176 
2904.796896  	0.001117 
2906.725712  	0.001681 
2908.654528  	0.002285 
2910.583344  	0.002672 
2912.512160  	0.003149 
2914.440976  	0.004169 
2916.369792  	0.005066 
2918.298608  	0.005539 
2920.227424  	0.005839 
2922.156240  	0.006450 
2924.085056  	0.007346 
2926.013872  	0.008334 
2927.942688  	0.009311 
2929.871504  	0.010273 
2931.800320  	0.011185 
2933.729136  	0.012066 
2935.657952  	0.012669 
2937.586768  	0.013261 
2939.515584  	0.013852 
2941.444400  	0.014107 
2943.373216  	0.014143 
2945.302032  	0.014443 
2947.230848  	0.014750 
2949.159664  	0.014532 
2951.088480  	0.013956 
2953.017296  	0.013445 
2954.946112  	0.012808 
2956.874928  	0.012085 
2958.803744  	0.011210 
2960.732560  	0.010621 
2962.661376  	0.010046 
2964.590192  	0.009216 
2966.519008  	0.008036 
2968.447824  	0.007028 
2970.376640  	0.006245 
2972.305456  	0.005756 
2974.234272  	0.005934 
2976.163088  	0.006272 
2978.091904  	0.006242 
2980.020720  	0.006149 
2981.949536  	0.006350 
2983.878352  	0.006162 
2985.807168  	0.005267 
2987.735984  	0.004446 
2989.664800  	0.004849 
2991.593616  	0.007833 
2993.522432  	0.009733 
2995.451248  	0.010235 
2997.380064  	0.011127 
2999.308880  	0.012359 
3001.237696  	0.013720 
3003.166512  	0.015186 
3005.095328  	0.016532 
3007.024144  	0.017809 
3008.952960  	0.019241 
3010.881776  	0.020706 
3012.810592  	0.022047 
3014.739408  	0.023348 
3016.668224  	0.024504 
3018.597040  	0.025627 
3020.525856  	0.026794 
3022.454672  	0.027948 
3024.383488  	0.028968 
3026.312304  	0.029848 
3028.241120  	0.030783 
3030.169936  	0.031745 
3032.098752  	0.032605 
3034.027568  	0.033448 
3035.956384  	0.034317 
3037.885200  	0.035234 
3039.814016  	0.035919 
3041.742832  	0.036494 
3043.671648  	0.036976 
3045.600464  	0.037642 
3047.529280  	0.038293 
3049.458096  	0.038874 
3051.386912  	0.039448 
3053.315728  	0.040024 
3055.244544  	0.040646 
3057.173360  	0.041257 
3059.102176  	0.041726 
3061.030992  	0.042431 
3062.959808  	0.043217 
3064.888624  	0.043985 
3066.817440  	0.044646 
3068.746256  	0.045546 
3070.675072  	0.046338 
3072.603888  	0.046909 
3074.532704  	0.047600 
3076.461520  	0.048286 
3078.390336  	0.049036 
3080.319152  	0.049689 
3082.247968  	0.050271 
3084.176784  	0.050905 
3086.105600  	0.051774 
3088.034416  	0.052613 
3089.963232  	0.053396 
3091.892048  	0.054135 
3093.820864  	0.054905 
3095.749680  	0.055671 
3097.678496  	0.056451 
3099.607312  	0.057257 
3101.536128  	0.058092 
3103.464944  	0.058921 
3105.393760  	0.059681 
3107.322576  	0.060456 
3109.251392  	0.061206 
3111.180208  	0.061923 
3113.109024  	0.062729 
3115.037840  	0.063607 
3116.966656  	0.064222 
3118.895472  	0.064801 
3120.824288  	0.065351 
3122.753104  	0.066004 
3124.681920  	0.066567 
3126.610736  	0.067137 
3128.539552  	0.067821 
3130.468368  	0.068708 
3132.397184  	0.069342 
3134.326000  	0.069779 
3136.254816  	0.070139 
3138.183632  	0.070729 
3140.112448  	0.071355 
3142.041264  	0.072035 
3143.970080  	0.072560 
3145.898896  	0.073213 
3147.827712  	0.073974 
3149.756528  	0.074516 
3151.685344  	0.074992 
3153.614160  	0.075591 
3155.542976  	0.076312 
3157.471792  	0.077147 
3159.400608  	0.077797 
3161.329424  	0.078267 
3163.258240  	0.078766 
3165.187056  	0.079357 
3167.115872  	0.079954 
3169.044688  	0.080385 
3170.973504  	0.080917 
3172.902320  	0.081427 
3174.831136  	0.082001 
3176.759952  	0.082472 
3178.688768  	0.082635 
3180.617584  	0.082993 
3182.546400  	0.083401 
3184.475216  	0.083757 
3186.404032  	0.083932 
3188.332848  	0.084080 
3190.261664  	0.084230 
3192.190480  	0.084321 
3194.119296  	0.084296 
3196.048112  	0.084576 
3197.976928  	0.084710 
3199.905744  	0.084606 
3201.834560  	0.084569 
3203.763376  	0.084631 
3205.692192  	0.084559 
3207.621008  	0.084324 
3209.549824  	0.084328 
3211.478640  	0.084518 
3213.407456  	0.084277 
3215.336272  	0.083869 
3217.265088  	0.083870 
3219.193904  	0.083805 
3221.122720  	0.083651 
3223.051536  	0.083456 
3224.980352  	0.083316 
3226.909168  	0.083239 
3228.837984  	0.083046 
3230.766800  	0.083039 
3232.695616  	0.083042 
3234.624432  	0.082874 
3236.553248  	0.082743 
3238.482064  	0.082644 
3240.410880  	0.082673 
3242.339696  	0.082854 
3244.268512  	0.082714 
3246.197328  	0.082930 
3248.126144  	0.083270 
3250.054960  	0.083398 
3251.983776  	0.083640 
3253.912592  	0.083797 
3255.841408  	0.083808 
3257.770224  	0.083977 
3259.699040  	0.084190 
3261.627856  	0.084568 
3263.556672  	0.084951 
3265.485488  	0.084948 
3267.414304  	0.085050 
3269.343120  	0.085537 
3271.271936  	0.085866 
3273.200752  	0.085834 
3275.129568  	0.085907 
3277.058384  	0.086254 
3278.987200  	0.086389 
3280.916016  	0.086537 
3282.844832  	0.086801 
3284.773648  	0.086916 
3286.702464  	0.087177 
3288.631280  	0.087621 
3290.560096  	0.088147 
3292.488912  	0.088548 
3294.417728  	0.088499 
3296.346544  	0.088716 
3298.275360  	0.089143 
3300.204176  	0.089528 
3302.132992  	0.089894 
3304.061808  	0.090134 
3305.990624  	0.090415 
3307.919440  	0.090752 
3309.848256  	0.091038 
3311.777072  	0.091280 
3313.705888  	0.091580 
3315.634704  	0.092076 
3317.563520  	0.092491 
3319.492336  	0.092742 
3321.421152  	0.092857 
3323.349968  	0.093134 
3325.278784  	0.093505 
3327.207600  	0.093754 
3329.136416  	0.093653 
3331.065232  	0.093560 
3332.994048  	0.093806 
3334.922864  	0.093967 
3336.851680  	0.093854 
3338.780496  	0.093862 
3340.709312  	0.093754 
3342.638128  	0.093522 
3344.566944  	0.093237 
3346.495760  	0.093223 
3348.424576  	0.093146 
3350.353392  	0.092749 
3352.282208  	0.092395 
3354.211024  	0.092128 
3356.139840  	0.091775 
3358.068656  	0.091426 
3359.997472  	0.091177 
3361.926288  	0.090802 
3363.855104  	0.090393 
3365.783920  	0.090050 
3367.712736  	0.089751 
3369.641552  	0.089390 
3371.570368  	0.088822 
3373.499184  	0.088414 
3375.428000  	0.088024 
3377.356816  	0.087590 
3379.285632  	0.087386 
3381.214448  	0.087117 
3383.143264  	0.086694 
3385.072080  	0.086342 
3387.000896  	0.085909 
3388.929712  	0.085433 
3390.858528  	0.084960 
3392.787344  	0.084649 
3394.716160  	0.084415 
3396.644976  	0.084093 
3398.573792  	0.083662 
3400.502608  	0.083147 
3402.431424  	0.082669 
3404.360240  	0.082296 
3406.289056  	0.081849 
3408.217872  	0.081348 
3410.146688  	0.080811 
3412.075504  	0.080315 
3414.004320  	0.079882 
3415.933136  	0.079655 
3417.861952  	0.079068 
3419.790768  	0.078411 
3421.719584  	0.077771 
3423.648400  	0.077298 
3425.577216  	0.076883 
3427.506032  	0.076393 
3429.434848  	0.075793 
3431.363664  	0.075174 
3433.292480  	0.074674 
3435.221296  	0.074065 
3437.150112  	0.073416 
3439.078928  	0.073047 
3441.007744  	0.072574 
3442.936560  	0.072096 
3444.865376  	0.071713 
3446.794192  	0.070696 
3448.723008  	0.069676 
3450.651824  	0.069081 
3452.580640  	0.068540 
3454.509456  	0.068208 
3456.438272  	0.067646 
3458.367088  	0.066891 
3460.295904  	0.066190 
3462.224720  	0.065420 
3464.153536  	0.064712 
3466.082352  	0.064076 
3468.011168  	0.063120 
3469.939984  	0.062340 
3471.868800  	0.061740 
3473.797616  	0.060969 
3475.726432  	0.060099 
3477.655248  	0.059429 
3479.584064  	0.058893 
3481.512880  	0.058035 
3483.441696  	0.056964 
3485.370512  	0.056393 
3487.299328  	0.055476 
3489.228144  	0.054702 
3491.156960  	0.054019 
3493.085776  	0.053314 
3495.014592  	0.052536 
3496.943408  	0.051719 
3498.872224  	0.051026 
3500.801040  	0.050653 
3502.729856  	0.049889 
3504.658672  	0.048926 
3506.587488  	0.048711 
3508.516304  	0.048264 
3510.445120  	0.047025 
3512.373936  	0.046439 
3514.302752  	0.045815 
3516.231568  	0.045389 
3518.160384  	0.045026 
3520.089200  	0.044443 
3522.018016  	0.043898 
3523.946832  	0.043102 
3525.875648  	0.042484 
3527.804464  	0.041636 
3529.733280  	0.040647 
3531.662096  	0.040099 
3533.590912  	0.039873 
3535.519728  	0.039567 
3537.448544  	0.038805 
3539.377360  	0.038133 
3541.306176  	0.037814 
3543.234992  	0.037629 
3545.163808  	0.036874 
3547.092624  	0.035651 
3549.021440  	0.034993 
3550.950256  	0.034706 
3552.879072  	0.033683 
3554.807888  	0.033077 
3556.736704  	0.032851 
3558.665520  	0.032587 
3560.594336  	0.032000 
3562.523152  	0.031530 
3564.451968  	0.031603 
3566.380784  	0.030494 
3568.309600  	0.027648 
3570.238416  	0.027679 
3572.167232  	0.028012 
3574.096048  	0.027302 
3576.024864  	0.026556 
3577.953680  	0.026030 
3579.882496  	0.025246 
3581.811312  	0.024702 
3583.740128  	0.024574 
3585.668944  	0.024683 
3587.597760  	0.022008 
3589.526576  	0.020262 
3591.455392  	0.021131 
3593.384208  	0.020954 
3595.313024  	0.019423 
3597.241840  	0.018303 
3599.170656  	0.017613 
3601.099472  	0.016614 
3603.028288  	0.016244 
3604.957104  	0.016657 
3606.885920  	0.016221 
3608.814736  	0.014198 
3610.743552  	0.013832 
3612.672368  	0.013093 
3614.601184  	0.011444 
3616.530000  	0.011942 
3618.458816  	0.010283 
3620.387632  	0.007455 
3622.316448  	0.007681 
3624.245264  	0.008269 
3626.174080  	0.009038 
3628.102896  	0.006852 
3630.031712  	0.000958 
3631.960528  	0.002872 
3633.889344  	0.002811 
3635.818160  	0.001975 
3637.746976  	0.001558 
3639.675792  	0.001141 
3641.604608  	0.000875 
3643.533424  	0.000697 
3645.462240  	0.001304 
3647.391056  	-0.000457 
3649.319872  	-0.005191 
3651.248688  	-0.008820 
3653.177504  	-0.006074 
3655.106320  	-0.005321 
3657.035136  	-0.008914 
3658.963952  	-0.008946 
3660.892768  	-0.008650 
3662.821584  	-0.008853 
3664.750400  	-0.008516 
3666.679216  	-0.007413 
3668.608032  	-0.008159 
3670.536848  	-0.012440 
3672.465664  	-0.010456 
3674.394480  	-0.009375 
3676.323296  	-0.015663 
3678.252112  	-0.013086 
3680.180928  	-0.011744 
3682.109744  	-0.011291 
3684.038560  	-0.010939 
3685.967376  	-0.009538 
3687.896192  	-0.010544 
3689.825008  	-0.014521 
3691.753824  	-0.014876 
3693.682640  	-0.012903 
3695.611456  	-0.011455 
3697.540272  	-0.010771 
3699.469088  	-0.009542 
3701.397904  	-0.010248 
3703.326720  	-0.010888 
3705.255536  	-0.009166 
3707.184352  	-0.007773 
3709.113168  	-0.007896 
3711.041984  	-0.010094 
3712.970800  	-0.011606 
3714.899616  	-0.009522 
3716.828432  	-0.007760 
3718.757248  	-0.007887 
3720.686064  	-0.008091 
3722.614880  	-0.008689 
3724.543696  	-0.008497 
3726.472512  	-0.009145 
3728.401328  	-0.008771 
3730.330144  	-0.007002 
3732.258960  	-0.007560 
3734.187776  	-0.007870 
3736.116592  	-0.010705 
3738.045408  	-0.010912 
3739.974224  	-0.008366 
3741.903040  	-0.005789 
3743.831856  	-0.007311 
3745.760672  	-0.011558 
3747.689488  	-0.007440 
3749.618304  	-0.008245 
3751.547120  	-0.012067 
3753.475936  	-0.012395 
3755.404752  	-0.009146 
3757.333568  	-0.008144 
3759.262384  	-0.009325 
3761.191200  	-0.010116 
3763.120016  	-0.007845 
3765.048832  	-0.008232 
3766.977648  	-0.008538 
3768.906464  	-0.008568 
3770.835280  	-0.010416 
3772.764096  	-0.009296 
3774.692912  	-0.008229 
3776.621728  	-0.007366 
3778.550544  	-0.007844 
3780.479360  	-0.010021 
3782.408176  	-0.008740 
3784.336992  	-0.008649 
3786.265808  	-0.009099 
3788.194624  	-0.008671 
3790.123440  	-0.008507 
3792.052256  	-0.008435 
3793.981072  	-0.007507 
3795.909888  	-0.008171 
3797.838704  	-0.008403 
3799.767520  	-0.006838 
3801.696336  	-0.011411 
3803.625152  	-0.011244 
3805.553968  	-0.008382 
3807.482784  	-0.011033 
3809.411600  	-0.010082 
3811.340416  	-0.008095 
3813.269232  	-0.006587 
3815.198048  	-0.007879 
3817.126864  	-0.010630 
3819.055680  	-0.007641 
3820.984496  	-0.010419 
3822.913312  	-0.011997 
3824.842128  	-0.008808 
3826.770944  	-0.009429 
3828.699760  	-0.008900 
3830.628576  	-0.008012 
3832.557392  	-0.008652 
3834.486208  	-0.007857 
3836.415024  	-0.007930 
3838.343840  	-0.010342 
3840.272656  	-0.011121 
3842.201472  	-0.009955 
3844.130288  	-0.010136 
3846.059104  	-0.009287 
3847.987920  	-0.007527 
3849.916736  	-0.006051 
3851.845552  	-0.005935 
3853.774368  	-0.013380 
3855.703184  	-0.013728 
3857.632000  	-0.010469 
3859.560816  	-0.008206 
3861.489632  	-0.007650 
3863.418448  	-0.008610 
3865.347264  	-0.010206 
3867.276080  	-0.008063 
3869.204896  	-0.008368 
3871.133712  	-0.011013 
3873.062528  	-0.009285 
3874.991344  	-0.010482 
3876.920160  	-0.008480 
3878.848976  	-0.006963 
3880.777792  	-0.009195 
3882.706608  	-0.008644 
3884.635424  	-0.008032 
3886.564240  	-0.010897 
3888.493056  	-0.008597 
3890.421872  	-0.008009 
3892.350688  	-0.010357 
3894.279504  	-0.009442 
3896.208320  	-0.007476 
3898.137136  	-0.006817 
3900.065952  	-0.007797 
3901.994768  	-0.008274 
3903.923584  	-0.009652 
3905.852400  	-0.010808 
3907.781216  	-0.009697 
3909.710032  	-0.008771 
3911.638848  	-0.008755 
3913.567664  	-0.008306 
3915.496480  	-0.007623 
3917.425296  	-0.008470 
3919.354112  	-0.009110 
3921.282928  	-0.008831 
3923.211744  	-0.007989 
3925.140560  	-0.008832 
3927.069376  	-0.008831 
3928.998192  	-0.008112 
3930.927008  	-0.008255 
3932.855824  	-0.008964 
3934.784640  	-0.008904 
3936.713456  	-0.008462 
3938.642272  	-0.008165 
3940.571088  	-0.007618 
3942.499904  	-0.008398 
3944.428720  	-0.009009 
3946.357536  	-0.008113 
3948.286352  	-0.008195 
3950.215168  	-0.008852 
3952.143984  	-0.008980 
3954.072800  	-0.008649 
3956.001616  	-0.008439 
3957.930432  	-0.008532 
3959.859248  	-0.008673 
3961.788064  	-0.008831 
3963.716880  	-0.008918 
3965.645696  	-0.008943 
3967.574512  	-0.008944 
3969.503328  	-0.008809 
3971.432144  	-0.008829 
3973.360960  	-0.008802 
3975.289776  	-0.009011 
3977.218592  	-0.009012 
3979.147408  	-0.009012 
3981.076224  	-0.008991 
3983.005040  	-0.008833 
3984.933856  	-0.008758 
3986.862672  	-0.008808 
3988.791488  	-0.008720 
3990.720304  	-0.008670 
3992.649120  	-0.008716 
3994.577936  	-0.008947 
3996.506752  	-0.009070 
3998.435568  	-0.008952 
4000.364384  	-0.008745 