##TITLE=No Description
##DATA TYPE=INFRARED SPECTRUM
##XUNITS=1/CM
##YUNITS=Abs
399.264912  	0.586517 
401.193728  	0.581316 
403.122544  	0.581970 
405.051360  	0.570977 
406.980176  	0.570659 
408.908992  	0.556409 
410.837808  	0.549545 
412.766624  	0.549162 
414.695440  	0.548891 
416.624256  	0.531850 
418.553072  	0.531784 
420.481888  	0.535659 
422.410704  	0.548662 
424.339520  	0.548660 
426.268336  	0.540925 
428.197152  	0.522831 
430.125968  	0.521583 
432.054784  	0.524131 
433.983600  	0.523986 
435.912416  	0.521469 
437.841232  	0.518968 
439.770048  	0.510654 
441.698864  	0.514455 
443.627680  	0.518059 
445.556496  	0.519189 
447.485312  	0.510703 
449.414128  	0.509478 
451.342944  	0.511925 
453.271760  	0.512329 
455.200576  	0.507709 
457.129392  	0.505602 
459.058208  	0.507696 
460.987024  	0.513095 
462.915840  	0.505551 
464.844656  	0.506744 
466.773472  	0.507354 
468.702288  	0.507108 
470.631104  	0.503718 
472.559920  	0.505914 
474.488736  	0.505370 
476.417552  	0.509572 
478.346368  	0.504766 
480.275184  	0.502492 
482.204000  	0.500220 
484.132816  	0.503065 
486.061632  	0.501187 
487.990448  	0.500705 
489.919264  	0.496680 
491.848080  	0.497242 
493.776896  	0.495924 
495.705712  	0.494805 
497.634528  	0.491296 
499.563344  	0.492308 
501.492160  	0.491072 
503.420976  	0.492288 
505.349792  	0.493481 
507.278608  	0.492996 
509.207424  	0.490890 
511.136240  	0.493075 
513.065056  	0.491604 
514.993872  	0.492436 
516.922688  	0.493520 
518.851504  	0.498640 
520.780320  	0.499324 
522.709136  	0.496821 
524.637952  	0.494269 
526.566768  	0.492831 
528.495584  	0.491126 
530.424400  	0.492331 
532.353216  	0.488570 
534.282032  	0.483186 
536.210848  	0.476984 
538.139664  	0.473686 
540.068480  	0.469808 
541.997296  	0.464668 
543.926112  	0.458217 
545.854928  	0.455172 
547.783744  	0.451513 
549.712560  	0.449303 
551.641376  	0.445094 
553.570192  	0.441006 
555.499008  	0.437946 
557.427824  	0.435478 
559.356640  	0.432561 
561.285456  	0.428973 
563.214272  	0.423906 
565.143088  	0.421084 
567.071904  	0.418087 
569.000720  	0.415132 
570.929536  	0.411169 
572.858352  	0.408591 
574.787168  	0.405582 
576.715984  	0.403598 
578.644800  	0.399863 
580.573616  	0.395965 
582.502432  	0.391210 
584.431248  	0.387800 
586.360064  	0.384536 
588.288880  	0.382172 
590.217696  	0.379650 
592.146512  	0.377575 
594.075328  	0.375644 
596.004144  	0.374164 
597.932960  	0.371334 
599.861776  	0.369696 
601.790592  	0.368288 
603.719408  	0.367227 
605.648224  	0.366187 
607.577040  	0.365038 
609.505856  	0.362989 
611.434672  	0.361563 
613.363488  	0.359456 
615.292304  	0.358073 
617.221120  	0.356583 
619.149936  	0.355237 
621.078752  	0.353696 
623.007568  	0.352486 
624.936384  	0.350898 
626.865200  	0.349552 
628.794016  	0.348569 
630.722832  	0.348255 
632.651648  	0.347898 
634.580464  	0.347913 
636.509280  	0.347537 
638.438096  	0.348089 
640.366912  	0.348107 
642.295728  	0.346636 
644.224544  	0.343416 
646.153360  	0.340841 
648.082176  	0.336991 
650.010992  	0.333031 
651.939808  	0.329559 
653.868624  	0.325591 
655.797440  	0.321899 
657.726256  	0.319011 
659.655072  	0.315368 
661.583888  	0.310810 
663.512704  	0.306633 
665.441520  	0.304139 
667.370336  	0.298717 
669.299152  	0.291783 
671.227968  	0.290062 
673.156784  	0.287930 
675.085600  	0.285467 
677.014416  	0.283278 
678.943232  	0.281419 
680.872048  	0.280073 
682.800864  	0.278401 
684.729680  	0.276705 
686.658496  	0.275070 
688.587312  	0.273462 
690.516128  	0.271817 
692.444944  	0.270548 
694.373760  	0.269431 
696.302576  	0.267714 
698.231392  	0.265329 
700.160208  	0.263182 
702.089024  	0.261330 
704.017840  	0.259033 
705.946656  	0.256795 
707.875472  	0.254641 
709.804288  	0.252150 
711.733104  	0.250144 
713.661920  	0.248197 
715.590736  	0.246929 
717.519552  	0.246760 
719.448368  	0.247044 
721.377184  	0.247460 
723.306000  	0.248564 
725.234816  	0.248686 
727.163632  	0.247828 
729.092448  	0.245658 
731.021264  	0.242621 
732.950080  	0.239349 
734.878896  	0.236474 
736.807712  	0.233422 
738.736528  	0.231028 
740.665344  	0.229270 
742.594160  	0.227786 
744.522976  	0.226406 
746.451792  	0.224800 
748.380608  	0.223064 
750.309424  	0.221836 
752.238240  	0.221046 
754.167056  	0.220302 
756.095872  	0.219216 
758.024688  	0.218374 
759.953504  	0.218046 
761.882320  	0.219011 
763.811136  	0.219598 
765.739952  	0.218932 
767.668768  	0.216609 
769.597584  	0.213918 
771.526400  	0.212859 
773.455216  	0.214228 
775.384032  	0.217735 
777.312848  	0.222806 
779.241664  	0.226960 
781.170480  	0.227536 
783.099296  	0.224069 
785.028112  	0.218558 
786.956928  	0.212766 
788.885744  	0.207899 
790.814560  	0.204157 
792.743376  	0.201589 
794.672192  	0.200645 
796.601008  	0.200018 
798.529824  	0.197248 
800.458640  	0.193059 
802.387456  	0.189452 
804.316272  	0.187449 
806.245088  	0.186331 
808.173904  	0.185695 
810.102720  	0.185385 
812.031536  	0.185751 
813.960352  	0.186278 
815.889168  	0.186540 
817.817984  	0.186719 
819.746800  	0.187321 
821.675616  	0.187797 
823.604432  	0.187795 
825.533248  	0.187615 
827.462064  	0.187399 
829.390880  	0.186581 
831.319696  	0.185392 
833.248512  	0.183914 
835.177328  	0.181906 
837.106144  	0.179279 
839.034960  	0.176261 
840.963776  	0.172820 
842.892592  	0.169212 
844.821408  	0.165872 
846.750224  	0.163010 
848.679040  	0.160221 
850.607856  	0.157966 
852.536672  	0.156115 
854.465488  	0.154575 
856.394304  	0.153592 
858.323120  	0.152448 
860.251936  	0.150627 
862.180752  	0.148728 
864.109568  	0.146417 
866.038384  	0.144232 
867.967200  	0.142357 
869.896016  	0.140654 
871.824832  	0.139737 
873.753648  	0.139485 
875.682464  	0.140229 
877.611280  	0.141160 
879.540096  	0.142224 
881.468912  	0.144182 
883.397728  	0.145783 
885.326544  	0.146992 
887.255360  	0.147230 
889.184176  	0.146430 
891.112992  	0.144415 
893.041808  	0.142605 
894.970624  	0.140317 
896.899440  	0.137105 
898.828256  	0.133049 
900.757072  	0.128962 
902.685888  	0.125626 
904.614704  	0.123721 
906.543520  	0.123737 
908.472336  	0.125183 
910.401152  	0.127772 
912.329968  	0.130783 
914.258784  	0.133867 
916.187600  	0.136580 
918.116416  	0.138918 
920.045232  	0.140530 
921.974048  	0.141427 
923.902864  	0.141851 
925.831680  	0.141725 
927.760496  	0.141641 
929.689312  	0.141927 
931.618128  	0.142695 
933.546944  	0.143199 
935.475760  	0.143338 
937.404576  	0.143218 
939.333392  	0.142946 
941.262208  	0.142882 
943.191024  	0.144115 
945.119840  	0.147759 
947.048656  	0.153613 
948.977472  	0.161440 
950.906288  	0.170969 
952.835104  	0.181477 
954.763920  	0.192784 
956.692736  	0.203457 
958.621552  	0.212506 
960.550368  	0.218688 
962.479184  	0.221765 
964.408000  	0.220863 
966.336816  	0.216000 
968.265632  	0.207684 
970.194448  	0.196646 
972.123264  	0.183687 
974.052080  	0.170146 
975.980896  	0.156988 
977.909712  	0.144792 
979.838528  	0.133870 
981.767344  	0.124864 
983.696160  	0.118049 
985.624976  	0.113981 
987.553792  	0.112574 
989.482608  	0.113705 
991.411424  	0.117247 
993.340240  	0.122418 
995.269056  	0.128778 
997.197872  	0.135801 
999.126688  	0.142930 
1001.055504  	0.149976 
1002.984320  	0.156933 
1004.913136  	0.163827 
1006.841952  	0.170537 
1008.770768  	0.176101 
1010.699584  	0.180043 
1012.628400  	0.182215 
1014.557216  	0.182989 
1016.486032  	0.183335 
1018.414848  	0.183031 
1020.343664  	0.182607 
1022.272480  	0.181714 
1024.201296  	0.180349 
1026.130112  	0.177360 
1028.058928  	0.176367 
1029.987744  	0.179158 
1031.916560  	0.181095 
1033.845376  	0.182623 
1035.774192  	0.184258 
1037.703008  	0.187305 
1039.631824  	0.193749 
1041.560640  	0.202565 
1043.489456  	0.214156 
1045.418272  	0.228433 
1047.347088  	0.244215 
1049.275904  	0.258243 
1051.204720  	0.269121 
1053.133536  	0.275578 
1055.062352  	0.278310 
1056.991168  	0.277820 
1058.919984  	0.278286 
1060.848800  	0.278626 
1062.777616  	0.276230 
1064.706432  	0.269975 
1066.635248  	0.264627 
1068.564064  	0.262671 
1070.492880  	0.257728 
1072.421696  	0.249994 
1074.350512  	0.244629 
1076.279328  	0.242660 
1078.208144  	0.244585 
1080.136960  	0.249159 
1082.065776  	0.254505 
1083.994592  	0.257897 
1085.923408  	0.258695 
1087.852224  	0.256253 
1089.781040  	0.251508 
1091.709856  	0.245471 
1093.638672  	0.237404 
1095.567488  	0.226872 
1097.496304  	0.215234 
1099.425120  	0.202655 
1101.353936  	0.190007 
1103.282752  	0.177853 
1105.211568  	0.166382 
1107.140384  	0.155096 
1109.069200  	0.144452 
1110.998016  	0.134897 
1112.926832  	0.126132 
1114.855648  	0.117752 
1116.784464  	0.109821 
1118.713280  	0.102522 
1120.642096  	0.095905 
1122.570912  	0.089655 
1124.499728  	0.083622 
1126.428544  	0.078320 
1128.357360  	0.073518 
1130.286176  	0.069567 
1132.214992  	0.066151 
1134.143808  	0.063215 
1136.072624  	0.060991 
1138.001440  	0.059012 
1139.930256  	0.056668 
1141.859072  	0.054397 
1143.787888  	0.051952 
1145.716704  	0.049727 
1147.645520  	0.047541 
1149.574336  	0.045752 
1151.503152  	0.044459 
1153.431968  	0.044019 
1155.360784  	0.044214 
1157.289600  	0.045135 
1159.218416  	0.046573 
1161.147232  	0.048632 
1163.076048  	0.050771 
1165.004864  	0.053169 
1166.933680  	0.055516 
1168.862496  	0.058037 
1170.791312  	0.060611 
1172.720128  	0.063660 
1174.648944  	0.066525 
1176.577760  	0.069308 
1178.506576  	0.072118 
1180.435392  	0.075070 
1182.364208  	0.077800 
1184.293024  	0.080904 
1186.221840  	0.084302 
1188.150656  	0.088270 
1190.079472  	0.092653 
1192.008288  	0.097973 
1193.937104  	0.104707 
1195.865920  	0.112505 
1197.794736  	0.120927 
1199.723552  	0.130128 
1201.652368  	0.139569 
1203.581184  	0.149014 
1205.510000  	0.158300 
1207.438816  	0.167041 
1209.367632  	0.175053 
1211.296448  	0.182045 
1213.225264  	0.187658 
1215.154080  	0.191802 
1217.082896  	0.195093 
1219.011712  	0.197160 
1220.940528  	0.198510 
1222.869344  	0.199019 
1224.798160  	0.198736 
1226.726976  	0.197943 
1228.655792  	0.196876 
1230.584608  	0.195030 
1232.513424  	0.192671 
1234.442240  	0.189582 
1236.371056  	0.185823 
1238.299872  	0.180781 
1240.228688  	0.173808 
1242.157504  	0.166831 
1244.086320  	0.160814 
1246.015136  	0.153289 
1247.943952  	0.144958 
1249.872768  	0.136790 
1251.801584  	0.129755 
1253.730400  	0.122734 
1255.659216  	0.115922 
1257.588032  	0.109465 
1259.516848  	0.103242 
1261.445664  	0.097520 
1263.374480  	0.092358 
1265.303296  	0.087889 
1267.232112  	0.084375 
1269.160928  	0.081641 
1271.089744  	0.079655 
1273.018560  	0.078713 
1274.947376  	0.078495 
1276.876192  	0.078610 
1278.805008  	0.078438 
1280.733824  	0.077356 
1282.662640  	0.075419 
1284.591456  	0.073119 
1286.520272  	0.070931 
1288.449088  	0.069406 
1290.377904  	0.068682 
1292.306720  	0.068772 
1294.235536  	0.068843 
1296.164352  	0.067808 
1298.093168  	0.065525 
1300.021984  	0.062613 
1301.950800  	0.059467 
1303.879616  	0.056476 
1305.808432  	0.053261 
1307.737248  	0.050052 
1309.666064  	0.047008 
1311.594880  	0.044512 
1313.523696  	0.042571 
1315.452512  	0.041426 
1317.381328  	0.040718 
1319.310144  	0.040630 
1321.238960  	0.040973 
1323.167776  	0.041804 
1325.096592  	0.042737 
1327.025408  	0.043374 
1328.954224  	0.043398 
1330.883040  	0.043030 
1332.811856  	0.042224 
1334.740672  	0.041461 
1336.669488  	0.040785 
1338.598304  	0.040227 
1340.527120  	0.039311 
1342.455936  	0.038761 
1344.384752  	0.038561 
1346.313568  	0.038776 
1348.242384  	0.039413 
1350.171200  	0.040606 
1352.100016  	0.042099 
1354.028832  	0.043876 
1355.957648  	0.045669 
1357.886464  	0.047711 
1359.815280  	0.049801 
1361.744096  	0.051738 
1363.672912  	0.053141 
1365.601728  	0.054749 
1367.530544  	0.056126 
1369.459360  	0.056484 
1371.388176  	0.056254 
1373.316992  	0.054950 
1375.245808  	0.052073 
1377.174624  	0.049510 
1379.103440  	0.046667 
1381.032256  	0.043972 
1382.961072  	0.041994 
1384.889888  	0.041106 
1386.818704  	0.039954 
1388.747520  	0.038330 
1390.676336  	0.036329 
1392.605152  	0.033230 
1394.533968  	0.031206 
1396.462784  	0.033652 
1398.391600  	0.034902 
1400.320416  	0.034610 
1402.249232  	0.034907 
1404.178048  	0.035348 
1406.106864  	0.035930 
1408.035680  	0.037746 
1409.964496  	0.040053 
1411.893312  	0.042858 
1413.822128  	0.045823 
1415.750944  	0.048984 
1417.679760  	0.051180 
1419.608576  	0.051605 
1421.537392  	0.052108 
1423.466208  	0.051945 
1425.395024  	0.050208 
1427.323840  	0.048932 
1429.252656  	0.046760 
1431.181472  	0.045037 
1433.110288  	0.044694 
1435.039104  	0.045355 
1436.967920  	0.045062 
1438.896736  	0.045975 
1440.825552  	0.047070 
1442.754368  	0.047701 
1444.683184  	0.047923 
1446.612000  	0.047921 
1448.540816  	0.047000 
1450.469632  	0.047330 
1452.398448  	0.048129 
1454.327264  	0.049269 
1456.256080  	0.049359 
1458.184896  	0.047569 
1460.113712  	0.048155 
1462.042528  	0.049437 
1463.971344  	0.049610 
1465.900160  	0.049899 
1467.828976  	0.052038 
1469.757792  	0.055304 
1471.686608  	0.058792 
1473.615424  	0.064207 
1475.544240  	0.069790 
1477.473056  	0.075134 
1479.401872  	0.079049 
1481.330688  	0.082285 
1483.259504  	0.084504 
1485.188320  	0.085995 
1487.117136  	0.086057 
1489.045952  	0.085176 
1490.974768  	0.082138 
1492.903584  	0.080129 
1494.832400  	0.077312 
1496.761216  	0.071416 
1498.690032  	0.065181 
1500.618848  	0.060565 
1502.547664  	0.057051 
1504.476480  	0.054462 
1506.405296  	0.048917 
1508.334112  	0.043542 
1510.262928  	0.043154 
1512.191744  	0.042026 
1514.120560  	0.041329 
1516.049376  	0.041014 
1517.978192  	0.041047 
1519.907008  	0.042823 
1521.835824  	0.044300 
1523.764640  	0.047812 
1525.693456  	0.051158 
1527.622272  	0.053081 
1529.551088  	0.053841 
1531.479904  	0.053646 
1533.408720  	0.050451 
1535.337536  	0.047145 
1537.266352  	0.046193 
1539.195168  	0.041866 
1541.123984  	0.035439 
1543.052800  	0.034626 
1544.981616  	0.033312 
1546.910432  	0.032919 
1548.839248  	0.033117 
1550.768064  	0.033023 
1552.696880  	0.033666 
1554.625696  	0.034760 
1556.554512  	0.036151 
1558.483328  	0.036849 
1560.412144  	0.038989 
1562.340960  	0.044248 
1564.269776  	0.048122 
1566.198592  	0.053205 
1568.127408  	0.057690 
1570.056224  	0.063288 
1571.985040  	0.069362 
1573.913856  	0.074273 
1575.842672  	0.076389 
1577.771488  	0.078396 
1579.700304  	0.079439 
1581.629120  	0.079101 
1583.557936  	0.078467 
1585.486752  	0.079293 
1587.415568  	0.081493 
1589.344384  	0.085844 
1591.273200  	0.091628 
1593.202016  	0.098714 
1595.130832  	0.106035 
1597.059648  	0.113791 
1598.988464  	0.120373 
1600.917280  	0.126109 
1602.846096  	0.129687 
1604.774912  	0.132085 
1606.703728  	0.132341 
1608.632544  	0.131650 
1610.561360  	0.129703 
1612.490176  	0.128314 
1614.418992  	0.126904 
1616.347808  	0.125588 
1618.276624  	0.126052 
1620.205440  	0.129399 
1622.134256  	0.132550 
1624.063072  	0.138432 
1625.991888  	0.144938 
1627.920704  	0.152807 
1629.849520  	0.161705 
1631.778336  	0.170549 
1633.707152  	0.177509 
1635.635968  	0.185946 
1637.564784  	0.194637 
1639.493600  	0.200779 
1641.422416  	0.205159 
1643.351232  	0.208983 
1645.280048  	0.210071 
1647.208864  	0.210154 
1649.137680  	0.210565 
1651.066496  	0.210985 
1652.995312  	0.205577 
1654.924128  	0.202640 
1656.852944  	0.202074 
1658.781760  	0.199951 
1660.710576  	0.196650 
1662.639392  	0.191948 
1664.568208  	0.187512 
1666.497024  	0.184918 
1668.425840  	0.180095 
1670.354656  	0.173662 
1672.283472  	0.170297 
1674.212288  	0.167476 
1676.141104  	0.162764 
1678.069920  	0.161369 
1679.998736  	0.160109 
1681.927552  	0.159449 
1683.856368  	0.156430 
1685.785184  	0.154570 
1687.714000  	0.155202 
1689.642816  	0.154510 
1691.571632  	0.153257 
1693.500448  	0.152654 
1695.429264  	0.149467 
1697.358080  	0.146593 
1699.286896  	0.144643 
1701.215712  	0.138689 
1703.144528  	0.137370 
1705.073344  	0.133845 
1707.002160  	0.128082 
1708.930976  	0.123487 
1710.859792  	0.117823 
1712.788608  	0.111501 
1714.717424  	0.103804 
1716.646240  	0.094026 
1718.575056  	0.081276 
1720.503872  	0.073370 
1722.432688  	0.066821 
1724.361504  	0.058071 
1726.290320  	0.050852 
1728.219136  	0.044749 
1730.147952  	0.039299 
1732.076768  	0.035084 
1734.005584  	0.029159 
1735.934400  	0.023770 
1737.863216  	0.023599 
1739.792032  	0.020594 
1741.720848  	0.018780 
1743.649664  	0.017468 
1745.578480  	0.016708 
1747.507296  	0.015478 
1749.436112  	0.014286 
1751.364928  	0.012547 
1753.293744  	0.012260 
1755.222560  	0.012333 
1757.151376  	0.011493 
1759.080192  	0.010950 
1761.009008  	0.010759 
1762.937824  	0.009265 
1764.866640  	0.009456 
1766.795456  	0.009509 
1768.724272  	0.009167 
1770.653088  	0.008637 
1772.581904  	0.007003 
1774.510720  	0.006692 
1776.439536  	0.007486 
1778.368352  	0.007533 
1780.297168  	0.007187 
1782.225984  	0.006678 
1784.154800  	0.006909 
1786.083616  	0.006315 
1788.012432  	0.006744 
1789.941248  	0.007048 
1791.870064  	0.006193 
1793.798880  	0.005083 
1795.727696  	0.005933 
1797.656512  	0.005713 
1799.585328  	0.005636 
1801.514144  	0.005226 
1803.442960  	0.005313 
1805.371776  	0.005132 
1807.300592  	0.005366 
1809.229408  	0.005032 
1811.158224  	0.004693 
1813.087040  	0.004388 
1815.015856  	0.004772 
1816.944672  	0.004679 
1818.873488  	0.004919 
1820.802304  	0.004763 
1822.731120  	0.005292 
1824.659936  	0.004760 
1826.588752  	0.004412 
1828.517568  	0.004388 
1830.446384  	0.003767 
1832.375200  	0.003752 
1834.304016  	0.004485 
1836.232832  	0.004366 
1838.161648  	0.004363 
1840.090464  	0.004202 
1842.019280  	0.004898 
1843.948096  	0.004173 
1845.876912  	0.003844 
1847.805728  	0.004077 
1849.734544  	0.004060 
1851.663360  	0.003926 
1853.592176  	0.004042 
1855.520992  	0.003915 
1857.449808  	0.004131 
1859.378624  	0.003844 
1861.307440  	0.003917 
1863.236256  	0.003782 
1865.165072  	0.004060 
1867.093888  	0.004039 
1869.022704  	0.003850 
1870.951520  	0.003354 
1872.880336  	0.003939 
1874.809152  	0.003877 
1876.737968  	0.003800 
1878.666784  	0.003403 
1880.595600  	0.003860 
1882.524416  	0.003519 
1884.453232  	0.003464 
1886.382048  	0.003484 
1888.310864  	0.003795 
1890.239680  	0.003292 
1892.168496  	0.003386 
1894.097312  	0.003129 
1896.026128  	0.003375 
1897.954944  	0.003404 
1899.883760  	0.003399 
1901.812576  	0.003154 
1903.741392  	0.003177 
1905.670208  	0.003268 
1907.599024  	0.003934 
1909.527840  	0.003612 
1911.456656  	0.003611 
1913.385472  	0.003373 
1915.314288  	0.003951 
1917.243104  	0.003816 
1919.171920  	0.003675 
1921.100736  	0.003682 
1923.029552  	0.003569 
1924.958368  	0.003187 
1926.887184  	0.003936 
1928.816000  	0.003567 
1930.744816  	0.003459 
1932.673632  	0.003216 
1934.602448  	0.003408 
1936.531264  	0.003227 
1938.460080  	0.003519 
1940.388896  	0.003268 
1942.317712  	0.003268 
1944.246528  	0.003069 
1946.175344  	0.003701 
1948.104160  	0.003517 
1950.032976  	0.003971 
1951.961792  	0.003672 
1953.890608  	0.004013 
1955.819424  	0.003153 
1957.748240  	0.003558 
1959.677056  	0.003658 
1961.605872  	0.003851 
1963.534688  	0.003290 
1965.463504  	0.004046 
1967.392320  	0.003153 
1969.321136  	0.002904 
1971.249952  	0.003028 
1973.178768  	0.004454 
1975.107584  	0.003610 
1977.036400  	0.004336 
1978.965216  	0.005530 
1980.894032  	0.005714 
1982.822848  	0.004698 
1984.751664  	0.005263 
1986.680480  	0.004946 
1988.609296  	0.005079 
1990.538112  	0.003634 
1992.466928  	0.003656 
1994.395744  	0.003080 
1996.324560  	0.003603 
1998.253376  	0.003445 
2000.182192  	0.003112 
2002.111008  	0.003252 
2004.039824  	0.004818 
2005.968640  	0.004795 
2007.897456  	0.004312 
2009.826272  	0.003157 
2011.755088  	0.004229 
2013.683904  	0.004315 
2015.612720  	0.004351 
2017.541536  	0.003782 
2019.470352  	0.004268 
2021.399168  	0.003439 
2023.327984  	0.002763 
2025.256800  	0.002914 
2027.185616  	0.003762 
2029.114432  	0.004798 
2031.043248  	0.005977 
2032.972064  	0.005543 
2034.900880  	0.005933 
2036.829696  	0.004269 
2038.758512  	0.004478 
2040.687328  	0.004331 
2042.616144  	0.004803 
2044.544960  	0.004109 
2046.473776  	0.005044 
2048.402592  	0.005125 
2050.331408  	0.004527 
2052.260224  	0.003130 
2054.189040  	0.003150 
2056.117856  	0.002830 
2058.046672  	0.003256 
2059.975488  	0.003212 
2061.904304  	0.002929 
2063.833120  	0.002922 
2065.761936  	0.003117 
2067.690752  	0.002549 
2069.619568  	0.003273 
2071.548384  	0.003346 
2073.477200  	0.003177 
2075.406016  	0.003420 
2077.334832  	0.003686 
2079.263648  	0.003137 
2081.192464  	0.003678 
2083.121280  	0.003877 
2085.050096  	0.003442 
2086.978912  	0.003004 
2088.907728  	0.003367 
2090.836544  	0.003648 
2092.765360  	0.003769 
2094.694176  	0.003619 
2096.622992  	0.003706 
2098.551808  	0.003367 
2100.480624  	0.003547 
2102.409440  	0.003724 
2104.338256  	0.003863 
2106.267072  	0.003850 
2108.195888  	0.004326 
2110.124704  	0.003900 
2112.053520  	0.003712 
2113.982336  	0.003427 
2115.911152  	0.003540 
2117.839968  	0.003727 
2119.768784  	0.003898 
2121.697600  	0.003585 
2123.626416  	0.003409 
2125.555232  	0.003196 
2127.484048  	0.003385 
2129.412864  	0.003016 
2131.341680  	0.003198 
2133.270496  	0.003230 
2135.199312  	0.003785 
2137.128128  	0.003955 
2139.056944  	0.004120 
2140.985760  	0.003915 
2142.914576  	0.004268 
2144.843392  	0.004046 
2146.772208  	0.004544 
2148.701024  	0.004135 
2150.629840  	0.004497 
2152.558656  	0.004325 
2154.487472  	0.004445 
2156.416288  	0.004393 
2158.345104  	0.005156 
2160.273920  	0.006847 
2162.202736  	0.007727 
2164.131552  	0.006784 
2166.060368  	0.006254 
2167.989184  	0.006513 
2169.918000  	0.007291 
2171.846816  	0.005284 
2173.775632  	0.005104 
2175.704448  	0.005576 
2177.633264  	0.005745 
2179.562080  	0.005487 
2181.490896  	0.006412 
2183.419712  	0.005199 
2185.348528  	0.004271 
2187.277344  	0.004643 
2189.206160  	0.005132 
2191.134976  	0.004611 
2193.063792  	0.004719 
2194.992608  	0.004438 
2196.921424  	0.004719 
2198.850240  	0.005067 
2200.779056  	0.005110 
2202.707872  	0.004524 
2204.636688  	0.004500 
2206.565504  	0.004754 
2208.494320  	0.004866 
2210.423136  	0.004576 
2212.351952  	0.004377 
2214.280768  	0.003784 
2216.209584  	0.003919 
2218.138400  	0.003610 
2220.067216  	0.003762 
2221.996032  	0.003960 
2223.924848  	0.004421 
2225.853664  	0.004893 
2227.782480  	0.004739 
2229.711296  	0.003449 
2231.640112  	0.002958 
2233.568928  	0.003167 
2235.497744  	0.003795 
2237.426560  	0.003354 
2239.355376  	0.003456 
2241.284192  	0.003616 
2243.213008  	0.003880 
2245.141824  	0.003567 
2247.070640  	0.003722 
2248.999456  	0.003482 
2250.928272  	0.003080 
2252.857088  	0.002766 
2254.785904  	0.003178 
2256.714720  	0.002846 
2258.643536  	0.002519 
2260.572352  	0.002365 
2262.501168  	0.002553 
2264.429984  	0.002594 
2266.358800  	0.002568 
2268.287616  	0.002615 
2270.216432  	0.002831 
2272.145248  	0.002757 
2274.074064  	0.002773 
2276.002880  	0.002781 
2277.931696  	0.002938 
2279.860512  	0.002861 
2281.789328  	0.003018 
2283.718144  	0.002943 
2285.646960  	0.003162 
2287.575776  	0.003271 
2289.504592  	0.003027 
2291.433408  	0.002648 
2293.362224  	0.002809 
2295.291040  	0.003107 
2297.219856  	0.003132 
2299.148672  	0.002940 
2301.077488  	0.002912 
2303.006304  	0.002730 
2304.935120  	0.002600 
2306.863936  	0.002609 
2308.792752  	0.002768 
2310.721568  	0.002600 
2312.650384  	0.002462 
2314.579200  	0.002258 
2316.508016  	0.001862 
2318.436832  	0.001647 
2320.365648  	0.001469 
2322.294464  	0.000952 
2324.223280  	0.000336 
2326.152096  	-0.000480 
2328.080912  	-0.001212 
2330.009728  	-0.002187 
2331.938544  	-0.003084 
2333.867360  	-0.003213 
2335.796176  	-0.003263 
2337.724992  	-0.003802 
2339.653808  	-0.003748 
2341.582624  	-0.004137 
2343.511440  	-0.004466 
2345.440256  	-0.004103 
2347.369072  	-0.002041 
2349.297888  	-0.000247 
2351.226704  	-0.000880 
2353.155520  	-0.002816 
2355.084336  	-0.003932 
2357.013152  	-0.005300 
2358.941968  	-0.006545 
2360.870784  	-0.007605 
2362.799600  	-0.007183 
2364.728416  	-0.006989 
2366.657232  	-0.006023 
2368.586048  	-0.004923 
2370.514864  	-0.003757 
2372.443680  	-0.002881 
2374.372496  	-0.001726 
2376.301312  	-0.000521 
2378.230128  	0.000476 
2380.158944  	0.000928 
2382.087760  	0.001527 
2384.016576  	0.001968 
2385.945392  	0.002068 
2387.874208  	0.002005 
2389.803024  	0.001951 
2391.731840  	0.001718 
2393.660656  	0.001741 
2395.589472  	0.001866 
2397.518288  	0.002057 
2399.447104  	0.002002 
2401.375920  	0.001970 
2403.304736  	0.001739 
2405.233552  	0.001737 
2407.162368  	0.001765 
2409.091184  	0.002011 
2411.020000  	0.002019 
2412.948816  	0.002041 
2414.877632  	0.002248 
2416.806448  	0.002392 
2418.735264  	0.002149 
2420.664080  	0.002040 
2422.592896  	0.001969 
2424.521712  	0.001897 
2426.450528  	0.001817 
2428.379344  	0.001983 
2430.308160  	0.002094 
2432.236976  	0.002110 
2434.165792  	0.002020 
2436.094608  	0.002112 
2438.023424  	0.002269 
2439.952240  	0.002413 
2441.881056  	0.002393 
2443.809872  	0.002396 
2445.738688  	0.002465 
2447.667504  	0.002583 
2449.596320  	0.002568 
2451.525136  	0.002790 
2453.453952  	0.002826 
2455.382768  	0.002663 
2457.311584  	0.002458 
2459.240400  	0.002456 
2461.169216  	0.002515 
2463.098032  	0.002373 
2465.026848  	0.002365 
2466.955664  	0.002582 
2468.884480  	0.002378 
2470.813296  	0.002200 
2472.742112  	0.002311 
2474.670928  	0.002491 
2476.599744  	0.002585 
2478.528560  	0.002669 
2480.457376  	0.002526 
2482.386192  	0.002511 
2484.315008  	0.002627 
2486.243824  	0.002555 
2488.172640  	0.002560 
2490.101456  	0.002765 
2492.030272  	0.002859 
2493.959088  	0.002866 
2495.887904  	0.002826 
2497.816720  	0.002970 
2499.745536  	0.003148 
2501.674352  	0.003366 
2503.603168  	0.003355 
2505.531984  	0.003342 
2507.460800  	0.003104 
2509.389616  	0.003025 
2511.318432  	0.003255 
2513.247248  	0.003561 
2515.176064  	0.003684 
2517.104880  	0.003618 
2519.033696  	0.003501 
2520.962512  	0.003717 
2522.891328  	0.003960 
2524.820144  	0.003750 
2526.748960  	0.003735 
2528.677776  	0.003984 
2530.606592  	0.003977 
2532.535408  	0.003867 
2534.464224  	0.003771 
2536.393040  	0.003998 
2538.321856  	0.004154 
2540.250672  	0.004122 
2542.179488  	0.003976 
2544.108304  	0.004002 
2546.037120  	0.004080 
2547.965936  	0.004146 
2549.894752  	0.004160 
2551.823568  	0.004159 
2553.752384  	0.004391 
2555.681200  	0.004730 
2557.610016  	0.004790 
2559.538832  	0.004859 
2561.467648  	0.004869 
2563.396464  	0.004858 
2565.325280  	0.005021 
2567.254096  	0.005232 
2569.182912  	0.005179 
2571.111728  	0.005253 
2573.040544  	0.005293 
2574.969360  	0.005270 
2576.898176  	0.005494 
2578.826992  	0.005635 
2580.755808  	0.005580 
2582.684624  	0.005617 
2584.613440  	0.005745 
2586.542256  	0.005801 
2588.471072  	0.005793 
2590.399888  	0.005869 
2592.328704  	0.005987 
2594.257520  	0.006042 
2596.186336  	0.006195 
2598.115152  	0.006379 
2600.043968  	0.006362 
2601.972784  	0.006547 
2603.901600  	0.006634 
2605.830416  	0.006578 
2607.759232  	0.006625 
2609.688048  	0.006689 
2611.616864  	0.006791 
2613.545680  	0.007014 
2615.474496  	0.007179 
2617.403312  	0.007348 
2619.332128  	0.007470 
2621.260944  	0.007479 
2623.189760  	0.007419 
2625.118576  	0.007492 
2627.047392  	0.007586 
2628.976208  	0.007645 
2630.905024  	0.007762 
2632.833840  	0.007883 
2634.762656  	0.008017 
2636.691472  	0.008036 
2638.620288  	0.008049 
2640.549104  	0.008225 
2642.477920  	0.008346 
2644.406736  	0.008536 
2646.335552  	0.008646 
2648.264368  	0.008775 
2650.193184  	0.008916 
2652.122000  	0.009093 
2654.050816  	0.009130 
2655.979632  	0.009227 
2657.908448  	0.009406 
2659.837264  	0.009517 
2661.766080  	0.009526 
2663.694896  	0.009628 
2665.623712  	0.009712 
2667.552528  	0.009876 
2669.481344  	0.010029 
2671.410160  	0.010094 
2673.338976  	0.010182 
2675.267792  	0.010511 
2677.196608  	0.010721 
2679.125424  	0.010642 
2681.054240  	0.010671 
2682.983056  	0.010806 
2684.911872  	0.010804 
2686.840688  	0.010912 
2688.769504  	0.011066 
2690.698320  	0.011168 
2692.627136  	0.011273 
2694.555952  	0.011342 
2696.484768  	0.011409 
2698.413584  	0.011482 
2700.342400  	0.011539 
2702.271216  	0.011810 
2704.200032  	0.012059 
2706.128848  	0.012095 
2708.057664  	0.012057 
2709.986480  	0.012247 
2711.915296  	0.012444 
2713.844112  	0.012583 
2715.772928  	0.012630 
2717.701744  	0.012713 
2719.630560  	0.012918 
2721.559376  	0.013041 
2723.488192  	0.013095 
2725.417008  	0.013324 
2727.345824  	0.013564 
2729.274640  	0.013653 
2731.203456  	0.013708 
2733.132272  	0.013868 
2735.061088  	0.013967 
2736.989904  	0.014094 
2738.918720  	0.014141 
2740.847536  	0.014228 
2742.776352  	0.014301 
2744.705168  	0.014428 
2746.633984  	0.014516 
2748.562800  	0.014512 
2750.491616  	0.014578 
2752.420432  	0.014817 
2754.349248  	0.014883 
2756.278064  	0.014828 
2758.206880  	0.014738 
2760.135696  	0.014730 
2762.064512  	0.014786 
2763.993328  	0.014764 
2765.922144  	0.014796 
2767.850960  	0.014894 
2769.779776  	0.014902 
2771.708592  	0.014945 
2773.637408  	0.014845 
2775.566224  	0.014711 
2777.495040  	0.014617 
2779.423856  	0.014737 
2781.352672  	0.014771 
2783.281488  	0.014702 
2785.210304  	0.014682 
2787.139120  	0.014700 
2789.067936  	0.014663 
2790.996752  	0.014675 
2792.925568  	0.014598 
2794.854384  	0.014541 
2796.783200  	0.014546 
2798.712016  	0.014460 
2800.640832  	0.014366 
2802.569648  	0.014409 
2804.498464  	0.014548 
2806.427280  	0.014468 
2808.356096  	0.014340 
2810.284912  	0.014562 
2812.213728  	0.014731 
2814.142544  	0.014588 
2816.071360  	0.014506 
2818.000176  	0.014492 
2819.928992  	0.014316 
2821.857808  	0.014239 
2823.786624  	0.014158 
2825.715440  	0.014112 
2827.644256  	0.014035 
2829.573072  	0.013856 
2831.501888  	0.013556 
2833.430704  	0.013254 
2835.359520  	0.012881 
2837.288336  	0.012611 
2839.217152  	0.012345 
2841.145968  	0.011891 
2843.074784  	0.011524 
2845.003600  	0.011076 
2846.932416  	0.010644 
2848.861232  	0.010383 
2850.790048  	0.009953 
2852.718864  	0.009397 
2854.647680  	0.008879 
2856.576496  	0.008385 
2858.505312  	0.007873 
2860.434128  	0.007388 
2862.362944  	0.006767 
2864.291760  	0.006074 
2866.220576  	0.005477 
2868.149392  	0.005258 
2870.078208  	0.005182 
2872.007024  	0.005115 
2873.935840  	0.005256 
2875.864656  	0.005360 
2877.793472  	0.005325 
2879.722288  	0.005266 
2881.651104  	0.004911 
2883.579920  	0.004691 
2885.508736  	0.004946 
2887.437552  	0.005198 
2889.366368  	0.005232 
2891.295184  	0.005046 
2893.224000  	0.004887 
2895.152816  	0.004918 
2897.081632  	0.004620 
2899.010448  	0.003012 
2900.939264  	0.001524 
2902.868080  	0.002678 
2904.796896  	0.003857 
2906.725712  	0.004402 
2908.654528  	0.005085 
2910.583344  	0.005519 
2912.512160  	0.006091 
2914.440976  	0.007093 
2916.369792  	0.007844 
2918.298608  	0.008390 
2920.227424  	0.008791 
2922.156240  	0.009448 
2924.085056  	0.010269 
2926.013872  	0.011164 
2927.942688  	0.012223 
2929.871504  	0.013229 
2931.800320  	0.014133 
2933.729136  	0.015034 
2935.657952  	0.015804 
2937.586768  	0.016565 
2939.515584  	0.017292 
2941.444400  	0.017684 
2943.373216  	0.017721 
2945.302032  	0.017953 
2947.230848  	0.018138 
2949.159664  	0.017866 
2951.088480  	0.017337 
2953.017296  	0.016947 
2954.946112  	0.016370 
2956.874928  	0.015565 
2958.803744  	0.014756 
2960.732560  	0.014322 
2962.661376  	0.013736 
2964.590192  	0.012754 
2966.519008  	0.011610 
2968.447824  	0.010691 
2970.376640  	0.009927 
2972.305456  	0.009366 
2974.234272  	0.009505 
2976.163088  	0.009813 
2978.091904  	0.009836 
2980.020720  	0.009857 
2981.949536  	0.010075 
2983.878352  	0.009889 
2985.807168  	0.009011 
2987.735984  	0.008121 
2989.664800  	0.008563 
2991.593616  	0.011496 
2993.522432  	0.013398 
2995.451248  	0.013956 
2997.380064  	0.014645 
2999.308880  	0.015785 
3001.237696  	0.017158 
3003.166512  	0.018607 
3005.095328  	0.019941 
3007.024144  	0.021334 
3008.952960  	0.022684 
3010.881776  	0.024041 
3012.810592  	0.025273 
3014.739408  	0.026501 
3016.668224  	0.027741 
3018.597040  	0.029099 
3020.525856  	0.030245 
3022.454672  	0.031199 
3024.383488  	0.032256 
3026.312304  	0.033212 
3028.241120  	0.034247 
3030.169936  	0.035227 
3032.098752  	0.035977 
3034.027568  	0.036806 
3035.956384  	0.037726 
3037.885200  	0.038601 
3039.814016  	0.039286 
3041.742832  	0.039941 
3043.671648  	0.040623 
3045.600464  	0.041190 
3047.529280  	0.041760 
3049.458096  	0.042464 
3051.386912  	0.043236 
3053.315728  	0.043896 
3055.244544  	0.044447 
3057.173360  	0.044990 
3059.102176  	0.045697 
3061.030992  	0.046551 
3062.959808  	0.047285 
3064.888624  	0.047903 
3066.817440  	0.048635 
3068.746256  	0.049443 
3070.675072  	0.050240 
3072.603888  	0.050888 
3074.532704  	0.051726 
3076.461520  	0.052496 
3078.390336  	0.053163 
3080.319152  	0.053951 
3082.247968  	0.054816 
3084.176784  	0.055602 
3086.105600  	0.056423 
3088.034416  	0.057185 
3089.963232  	0.058031 
3091.892048  	0.058825 
3093.820864  	0.059671 
3095.749680  	0.060447 
3097.678496  	0.061200 
3099.607312  	0.062076 
3101.536128  	0.062895 
3103.464944  	0.063763 
3105.393760  	0.064650 
3107.322576  	0.065471 
3109.251392  	0.066243 
3111.180208  	0.066899 
3113.109024  	0.067707 
3115.037840  	0.068452 
3116.966656  	0.069137 
3118.895472  	0.069699 
3120.824288  	0.070319 
3122.753104  	0.070991 
3124.681920  	0.071435 
3126.610736  	0.071937 
3128.539552  	0.072721 
3130.468368  	0.073408 
3132.397184  	0.073954 
3134.326000  	0.074770 
3136.254816  	0.075197 
3138.183632  	0.075696 
3140.112448  	0.076393 
3142.041264  	0.076999 
3143.970080  	0.077397 
3145.898896  	0.077879 
3147.827712  	0.078596 
3149.756528  	0.079200 
3151.685344  	0.079695 
3153.614160  	0.080456 
3155.542976  	0.081347 
3157.471792  	0.081991 
3159.400608  	0.082418 
3161.329424  	0.082887 
3163.258240  	0.083340 
3165.187056  	0.083748 
3167.115872  	0.084393 
3169.044688  	0.085090 
3170.973504  	0.085588 
3172.902320  	0.085938 
3174.831136  	0.086340 
3176.759952  	0.086930 
3178.688768  	0.087359 
3180.617584  	0.087521 
3182.546400  	0.087750 
3184.475216  	0.088047 
3186.404032  	0.088046 
3188.332848  	0.088050 
3190.261664  	0.088271 
3192.190480  	0.088511 
3194.119296  	0.088498 
3196.048112  	0.088546 
3197.976928  	0.088296 
3199.905744  	0.087917 
3201.834560  	0.087812 
3203.763376  	0.087993 
3205.692192  	0.088050 
3207.621008  	0.087972 
3209.549824  	0.087858 
3211.478640  	0.087753 
3213.407456  	0.087650 
3215.336272  	0.087539 
3217.265088  	0.087395 
3219.193904  	0.087113 
3221.122720  	0.086786 
3223.051536  	0.086673 
3224.980352  	0.086608 
3226.909168  	0.086624 
3228.837984  	0.086523 
3230.766800  	0.086406 
3232.695616  	0.086345 
3234.624432  	0.086247 
3236.553248  	0.086049 
3238.482064  	0.085901 
3240.410880  	0.085878 
3242.339696  	0.086055 
3244.268512  	0.086093 
3246.197328  	0.086252 
3248.126144  	0.086390 
3250.054960  	0.086382 
3251.983776  	0.086544 
3253.912592  	0.086805 
3255.841408  	0.087003 
3257.770224  	0.087175 
3259.699040  	0.087320 
3261.627856  	0.087671 
3263.556672  	0.087824 
3265.485488  	0.087949 
3267.414304  	0.088267 
3269.343120  	0.088644 
3271.271936  	0.088912 
3273.200752  	0.088977 
3275.129568  	0.089032 
3277.058384  	0.089361 
3278.987200  	0.089709 
3280.916016  	0.089910 
3282.844832  	0.089901 
3284.773648  	0.089787 
3286.702464  	0.090046 
3288.631280  	0.090503 
3290.560096  	0.090870 
3292.488912  	0.091175 
3294.417728  	0.091264 
3296.346544  	0.091363 
3298.275360  	0.091698 
3300.204176  	0.092146 
3302.132992  	0.092596 
3304.061808  	0.092940 
3305.990624  	0.093247 
3307.919440  	0.093496 
3309.848256  	0.093578 
3311.777072  	0.093855 
3313.705888  	0.094204 
3315.634704  	0.094671 
3317.563520  	0.094798 
3319.492336  	0.095023 
3321.421152  	0.095287 
3323.349968  	0.095393 
3325.278784  	0.095481 
3327.207600  	0.095595 
3329.136416  	0.095585 
3331.065232  	0.095680 
3332.994048  	0.095696 
3334.922864  	0.095701 
3336.851680  	0.095655 
3338.780496  	0.095538 
3340.709312  	0.095441 
3342.638128  	0.095313 
3344.566944  	0.094883 
3346.495760  	0.094624 
3348.424576  	0.094464 
3350.353392  	0.094175 
3352.282208  	0.093817 
3354.211024  	0.093543 
3356.139840  	0.093253 
3358.068656  	0.092946 
3359.997472  	0.092739 
3361.926288  	0.092310 
3363.855104  	0.091812 
3365.783920  	0.091323 
3367.712736  	0.090830 
3369.641552  	0.090401 
3371.570368  	0.089957 
3373.499184  	0.089740 
3375.428000  	0.089547 
3377.356816  	0.089056 
3379.285632  	0.088729 
3381.214448  	0.088398 
3383.143264  	0.087899 
3385.072080  	0.087523 
3387.000896  	0.087277 
3388.929712  	0.086977 
3390.858528  	0.086573 
3392.787344  	0.085987 
3394.716160  	0.085347 
3396.644976  	0.085071 
3398.573792  	0.084728 
3400.502608  	0.084329 
3402.431424  	0.083918 
3404.360240  	0.083386 
3406.289056  	0.082733 
3408.217872  	0.082224 
3410.146688  	0.081781 
3412.075504  	0.081387 
3414.004320  	0.080908 
3415.933136  	0.080498 
3417.861952  	0.079964 
3419.790768  	0.079449 
3421.719584  	0.078841 
3423.648400  	0.078345 
3425.577216  	0.077792 
3427.506032  	0.077158 
3429.434848  	0.076661 
3431.363664  	0.076170 
3433.292480  	0.075611 
3435.221296  	0.074979 
3437.150112  	0.074300 
3439.078928  	0.073797 
3441.007744  	0.073177 
3442.936560  	0.072664 
3444.865376  	0.072336 
3446.794192  	0.071389 
3448.723008  	0.070469 
3450.651824  	0.069989 
3452.580640  	0.069421 
3454.509456  	0.068900 
3456.438272  	0.068154 
3458.367088  	0.067516 
3460.295904  	0.066936 
3462.224720  	0.066097 
3464.153536  	0.065314 
3466.082352  	0.064776 
3468.011168  	0.063883 
3469.939984  	0.063007 
3471.868800  	0.062319 
3473.797616  	0.061494 
3475.726432  	0.060653 
3477.655248  	0.059987 
3479.584064  	0.059438 
3481.512880  	0.058663 
3483.441696  	0.057783 
3485.370512  	0.057190 
3487.299328  	0.056247 
3489.228144  	0.055396 
3491.156960  	0.054552 
3493.085776  	0.053803 
3495.014592  	0.052959 
3496.943408  	0.052251 
3498.872224  	0.051659 
3500.801040  	0.051075 
3502.729856  	0.050142 
3504.658672  	0.049324 
3506.587488  	0.049137 
3508.516304  	0.048672 
3510.445120  	0.047683 
3512.373936  	0.046960 
3514.302752  	0.046178 
3516.231568  	0.045818 
3518.160384  	0.045549 
3520.089200  	0.044993 
3522.018016  	0.044287 
3523.946832  	0.043521 
3525.875648  	0.042820 
3527.804464  	0.041865 
3529.733280  	0.041061 
3531.662096  	0.040539 
3533.590912  	0.040147 
3535.519728  	0.039570 
3537.448544  	0.038914 
3539.377360  	0.038498 
3541.306176  	0.038014 
3543.234992  	0.037482 
3545.163808  	0.036739 
3547.092624  	0.035777 
3549.021440  	0.035121 
3550.950256  	0.034843 
3552.879072  	0.033800 
3554.807888  	0.033104 
3556.736704  	0.032774 
3558.665520  	0.032443 
3560.594336  	0.031919 
3562.523152  	0.031157 
3564.451968  	0.030951 
3566.380784  	0.030213 
3568.309600  	0.028020 
3570.238416  	0.027603 
3572.167232  	0.027735 
3574.096048  	0.027147 
3576.024864  	0.026357 
3577.953680  	0.026009 
3579.882496  	0.025277 
3581.811312  	0.024415 
3583.740128  	0.024120 
3585.668944  	0.023978 
3587.597760  	0.021797 
3589.526576  	0.020376 
3591.455392  	0.020745 
3593.384208  	0.020350 
3595.313024  	0.019184 
3597.241840  	0.018147 
3599.170656  	0.017260 
3601.099472  	0.016441 
3603.028288  	0.016019 
3604.957104  	0.016066 
3606.885920  	0.015556 
3608.814736  	0.013921 
3610.743552  	0.013406 
3612.672368  	0.012640 
3614.601184  	0.011072 
3616.530000  	0.011013 
3618.458816  	0.009327 
3620.387632  	0.007438 
3622.316448  	0.007663 
3624.245264  	0.007747 
3626.174080  	0.007960 
3628.102896  	0.006345 
3630.031712  	0.001651 
3631.960528  	0.002654 
3633.889344  	0.002619 
3635.818160  	0.001857 
3637.746976  	0.001151 
3639.675792  	0.000503 
3641.604608  	0.000012 
3643.533424  	-0.000355 
3645.462240  	-0.000174 
3647.391056  	-0.001821 
3649.319872  	-0.005930 
3651.248688  	-0.008712 
3653.177504  	-0.006746 
3655.106320  	-0.006290 
3657.035136  	-0.009216 
3658.963952  	-0.009494 
3660.892768  	-0.009360 
3662.821584  	-0.009537 
3664.750400  	-0.009498 
3666.679216  	-0.008928 
3668.608032  	-0.009424 
3670.536848  	-0.012698 
3672.465664  	-0.011417 
3674.394480  	-0.010430 
3676.323296  	-0.015287 
3678.252112  	-0.013501 
3680.180928  	-0.012348 
3682.109744  	-0.012080 
3684.038560  	-0.012009 
3685.967376  	-0.011170 
3687.896192  	-0.011862 
3689.825008  	-0.014569 
3691.753824  	-0.014764 
3693.682640  	-0.013318 
3695.611456  	-0.012350 
3697.540272  	-0.011705 
3699.469088  	-0.010614 
3701.397904  	-0.011383 
3703.326720  	-0.011719 
3705.255536  	-0.010055 
3707.184352  	-0.008971 
3709.113168  	-0.009191 
3711.041984  	-0.010879 
3712.970800  	-0.011873 
3714.899616  	-0.010401 
3716.828432  	-0.009034 
3718.757248  	-0.008998 
3720.686064  	-0.009121 
3722.614880  	-0.009720 
3724.543696  	-0.009617 
3726.472512  	-0.009885 
3728.401328  	-0.009570 
3730.330144  	-0.008585 
3732.258960  	-0.009121 
3734.187776  	-0.009466 
3736.116592  	-0.011435 
3738.045408  	-0.011345 
3739.974224  	-0.009324 
3741.903040  	-0.007686 
3743.831856  	-0.008934 
3745.760672  	-0.012091 
3747.689488  	-0.009225 
3749.618304  	-0.010044 
3751.547120  	-0.012776 
3753.475936  	-0.012675 
3755.404752  	-0.010258 
3757.333568  	-0.009514 
3759.262384  	-0.010307 
3761.191200  	-0.010844 
3763.120016  	-0.009297 
3765.048832  	-0.009375 
3766.977648  	-0.009681 
3768.906464  	-0.009790 
3770.835280  	-0.011074 
3772.764096  	-0.010343 
3774.692912  	-0.009506 
3776.621728  	-0.008937 
3778.550544  	-0.009386 
3780.479360  	-0.010877 
3782.408176  	-0.010047 
3784.336992  	-0.010054 
3786.265808  	-0.010271 
3788.194624  	-0.009929 
3790.123440  	-0.009811 
3792.052256  	-0.009715 
3793.981072  	-0.009033 
3795.909888  	-0.009425 
3797.838704  	-0.009790 
3799.767520  	-0.008810 
3801.696336  	-0.011801 
3803.625152  	-0.011737 
3805.553968  	-0.009899 
3807.482784  	-0.011927 
3809.411600  	-0.011115 
3811.340416  	-0.009740 
3813.269232  	-0.008793 
3815.198048  	-0.009586 
3817.126864  	-0.011432 
3819.055680  	-0.009538 
3820.984496  	-0.011668 
3822.913312  	-0.012590 
3824.842128  	-0.010139 
3826.770944  	-0.010455 
3828.699760  	-0.010079 
3830.628576  	-0.009471 
3832.557392  	-0.010167 
3834.486208  	-0.009758 
3836.415024  	-0.009606 
3838.343840  	-0.011154 
3840.272656  	-0.011858 
3842.201472  	-0.010856 
3844.130288  	-0.010879 
3846.059104  	-0.010378 
3847.987920  	-0.009177 
3849.916736  	-0.008144 
3851.845552  	-0.008046 
3853.774368  	-0.013505 
3855.703184  	-0.013767 
3857.632000  	-0.011399 
3859.560816  	-0.009926 
3861.489632  	-0.009459 
3863.418448  	-0.009842 
3865.347264  	-0.010811 
3867.276080  	-0.009540 
3869.204896  	-0.009923 
3871.133712  	-0.011821 
3873.062528  	-0.010564 
3874.991344  	-0.011394 
3876.920160  	-0.010066 
3878.848976  	-0.009037 
3880.777792  	-0.010580 
3882.706608  	-0.010105 
3884.635424  	-0.009585 
3886.564240  	-0.011537 
3888.493056  	-0.009961 
3890.421872  	-0.009583 
3892.350688  	-0.011296 
3894.279504  	-0.010622 
3896.208320  	-0.009385 
3898.137136  	-0.008886 
3900.065952  	-0.009512 
3901.994768  	-0.009701 
3903.923584  	-0.010683 
3905.852400  	-0.011652 
3907.781216  	-0.010908 
3909.710032  	-0.010102 
3911.638848  	-0.009927 
3913.567664  	-0.009612 
3915.496480  	-0.009301 
3917.425296  	-0.010072 
3919.354112  	-0.010438 
3921.282928  	-0.010196 
3923.211744  	-0.009655 
3925.140560  	-0.010187 
3927.069376  	-0.010065 
3928.998192  	-0.009538 
3930.927008  	-0.009798 
3932.855824  	-0.010356 
3934.784640  	-0.010385 
3936.713456  	-0.010163 
3938.642272  	-0.009882 
3940.571088  	-0.009378 
3942.499904  	-0.009831 
3944.428720  	-0.010222 
3946.357536  	-0.009556 
3948.286352  	-0.009687 
3950.215168  	-0.010129 
3952.143984  	-0.010292 
3954.072800  	-0.010221 
3956.001616  	-0.010138 
3957.930432  	-0.010225 
3959.859248  	-0.010123 
3961.788064  	-0.010146 
3963.716880  	-0.010424 
3965.645696  	-0.010473 
3967.574512  	-0.010295 
3969.503328  	-0.010035 
3971.432144  	-0.009965 
3973.360960  	-0.010015 
3975.289776  	-0.010306 
3977.218592  	-0.010345 
3979.147408  	-0.010208 
3981.076224  	-0.010159 
3983.005040  	-0.010096 
3984.933856  	-0.010053 
3986.862672  	-0.010114 
3988.791488  	-0.010061 
3990.720304  	-0.010078 
3992.649120  	-0.010149 
3994.577936  	-0.010198 
3996.506752  	-0.010240 
3998.435568  	-0.010307 
4000.364384  	-0.010207 