##TITLE=No Description
##DATA TYPE=INFRARED SPECTRUM
##XUNITS=1/CM
##YUNITS=Abs
399.264912  	0.228831 
401.193728  	0.233923 
403.122544  	0.229116 
405.051360  	0.225824 
406.980176  	0.229777 
408.908992  	0.230428 
410.837808  	0.235189 
412.766624  	0.233080 
414.695440  	0.227919 
416.624256  	0.228065 
418.553072  	0.229526 
420.481888  	0.227444 
422.410704  	0.226145 
424.339520  	0.225079 
426.268336  	0.230602 
428.197152  	0.227480 
430.125968  	0.222324 
432.054784  	0.221267 
433.983600  	0.224393 
435.912416  	0.223828 
437.841232  	0.221112 
439.770048  	0.218730 
441.698864  	0.218513 
443.627680  	0.216825 
445.556496  	0.215669 
447.485312  	0.215032 
449.414128  	0.217953 
451.342944  	0.219552 
453.271760  	0.218295 
455.200576  	0.217648 
457.129392  	0.222637 
459.058208  	0.224144 
460.987024  	0.224266 
462.915840  	0.225171 
464.844656  	0.227347 
466.773472  	0.227608 
468.702288  	0.232506 
470.631104  	0.232684 
472.559920  	0.237554 
474.488736  	0.237919 
476.417552  	0.234903 
478.346368  	0.233207 
480.275184  	0.237279 
482.204000  	0.238410 
484.132816  	0.239139 
486.061632  	0.242558 
487.990448  	0.244011 
489.919264  	0.243739 
491.848080  	0.247225 
493.776896  	0.247599 
495.705712  	0.245155 
497.634528  	0.244152 
499.563344  	0.247064 
501.492160  	0.249891 
503.420976  	0.250215 
505.349792  	0.251146 
507.278608  	0.252513 
509.207424  	0.252494 
511.136240  	0.254695 
513.065056  	0.254858 
514.993872  	0.257380 
516.922688  	0.261269 
518.851504  	0.266507 
520.780320  	0.267980 
522.709136  	0.270675 
524.637952  	0.272489 
526.566768  	0.273437 
528.495584  	0.272210 
530.424400  	0.270803 
532.353216  	0.270443 
534.282032  	0.269931 
536.210848  	0.267297 
538.139664  	0.265109 
540.068480  	0.262717 
541.997296  	0.259945 
543.926112  	0.257085 
545.854928  	0.256380 
547.783744  	0.256162 
549.712560  	0.255126 
551.641376  	0.252600 
553.570192  	0.251278 
555.499008  	0.249766 
557.427824  	0.249138 
559.356640  	0.247084 
561.285456  	0.245440 
563.214272  	0.243470 
565.143088  	0.241838 
567.071904  	0.239324 
569.000720  	0.237614 
570.929536  	0.235181 
572.858352  	0.233884 
574.787168  	0.232783 
576.715984  	0.231023 
578.644800  	0.229433 
580.573616  	0.227546 
582.502432  	0.224502 
584.431248  	0.220890 
586.360064  	0.216947 
588.288880  	0.214800 
590.217696  	0.214295 
592.146512  	0.213669 
594.075328  	0.212283 
596.004144  	0.211362 
597.932960  	0.209928 
599.861776  	0.209017 
601.790592  	0.208180 
603.719408  	0.208165 
605.648224  	0.208084 
607.577040  	0.207490 
609.505856  	0.206609 
611.434672  	0.206576 
613.363488  	0.205826 
615.292304  	0.205545 
617.221120  	0.204963 
619.149936  	0.204540 
621.078752  	0.203614 
623.007568  	0.203897 
624.936384  	0.204139 
626.865200  	0.204193 
628.794016  	0.204590 
630.722832  	0.204669 
632.651648  	0.204801 
634.580464  	0.205636 
636.509280  	0.207562 
638.438096  	0.208873 
640.366912  	0.209728 
642.295728  	0.209483 
644.224544  	0.208375 
646.153360  	0.207261 
648.082176  	0.205224 
650.010992  	0.203065 
651.939808  	0.200012 
653.868624  	0.197873 
655.797440  	0.195167 
657.726256  	0.193218 
659.655072  	0.190373 
661.583888  	0.187549 
663.512704  	0.184795 
665.441520  	0.180701 
667.370336  	0.177724 
669.299152  	0.176764 
671.227968  	0.172625 
673.156784  	0.169160 
675.085600  	0.167141 
677.014416  	0.165643 
678.943232  	0.164366 
680.872048  	0.163544 
682.800864  	0.162524 
684.729680  	0.161709 
686.658496  	0.160683 
688.587312  	0.160182 
690.516128  	0.158987 
692.444944  	0.158207 
694.373760  	0.157798 
696.302576  	0.157404 
698.231392  	0.155988 
700.160208  	0.154786 
702.089024  	0.153637 
704.017840  	0.151915 
705.946656  	0.149787 
707.875472  	0.148002 
709.804288  	0.146762 
711.733104  	0.145896 
713.661920  	0.144638 
715.590736  	0.143792 
717.519552  	0.143934 
719.448368  	0.144359 
721.377184  	0.145507 
723.306000  	0.147277 
725.234816  	0.148979 
727.163632  	0.149467 
729.092448  	0.148088 
731.021264  	0.145529 
732.950080  	0.143215 
734.878896  	0.140942 
736.807712  	0.138343 
738.736528  	0.136398 
740.665344  	0.134829 
742.594160  	0.134305 
744.522976  	0.133394 
746.451792  	0.132921 
748.380608  	0.132169 
750.309424  	0.131522 
752.238240  	0.130942 
754.167056  	0.131138 
756.095872  	0.130842 
758.024688  	0.130157 
759.953504  	0.130305 
761.882320  	0.131189 
763.811136  	0.132403 
765.739952  	0.131998 
767.668768  	0.130422 
769.597584  	0.128822 
771.526400  	0.128736 
773.455216  	0.130618 
775.384032  	0.134465 
777.312848  	0.139984 
779.241664  	0.144429 
781.170480  	0.145565 
783.099296  	0.142675 
785.028112  	0.138579 
786.956928  	0.134318 
788.885744  	0.130625 
790.814560  	0.127436 
792.743376  	0.125977 
794.672192  	0.125796 
796.601008  	0.125294 
798.529824  	0.123183 
800.458640  	0.119988 
802.387456  	0.117044 
804.316272  	0.115690 
806.245088  	0.115261 
808.173904  	0.115181 
810.102720  	0.115367 
812.031536  	0.115696 
813.960352  	0.116450 
815.889168  	0.117364 
817.817984  	0.118265 
819.746800  	0.119371 
821.675616  	0.120704 
823.604432  	0.121991 
825.533248  	0.122765 
827.462064  	0.123331 
829.390880  	0.123549 
831.319696  	0.123767 
833.248512  	0.123184 
835.177328  	0.122274 
837.106144  	0.120612 
839.034960  	0.118435 
840.963776  	0.115673 
842.892592  	0.113032 
844.821408  	0.110225 
846.750224  	0.107316 
848.679040  	0.105194 
850.607856  	0.103665 
852.536672  	0.102849 
854.465488  	0.101980 
856.394304  	0.101408 
858.323120  	0.100682 
860.251936  	0.099824 
862.180752  	0.098709 
864.109568  	0.097383 
866.038384  	0.095843 
867.967200  	0.094252 
869.896016  	0.092907 
871.824832  	0.091655 
873.753648  	0.091319 
875.682464  	0.091646 
877.611280  	0.092924 
879.540096  	0.095014 
881.468912  	0.098216 
883.397728  	0.101540 
885.326544  	0.103871 
887.255360  	0.105633 
889.184176  	0.106532 
891.112992  	0.106338 
893.041808  	0.105446 
894.970624  	0.103715 
896.899440  	0.101041 
898.828256  	0.097846 
900.757072  	0.094484 
902.685888  	0.091210 
904.614704  	0.089585 
906.543520  	0.089592 
908.472336  	0.090830 
910.401152  	0.092966 
912.329968  	0.095840 
914.258784  	0.098707 
916.187600  	0.101377 
918.116416  	0.103563 
920.045232  	0.105517 
921.974048  	0.106813 
923.902864  	0.107501 
925.831680  	0.108092 
927.760496  	0.109018 
929.689312  	0.109930 
931.618128  	0.110872 
933.546944  	0.111565 
935.475760  	0.112124 
937.404576  	0.112199 
939.333392  	0.111727 
941.262208  	0.111580 
943.191024  	0.112374 
945.119840  	0.114703 
947.048656  	0.119309 
948.977472  	0.125939 
950.906288  	0.134001 
952.835104  	0.143740 
954.763920  	0.154792 
956.692736  	0.166034 
958.621552  	0.176496 
960.550368  	0.184168 
962.479184  	0.189554 
964.408000  	0.191157 
966.336816  	0.188634 
968.265632  	0.182042 
970.194448  	0.172650 
972.123264  	0.160939 
974.052080  	0.148232 
975.980896  	0.135677 
977.909712  	0.123701 
979.838528  	0.113006 
981.767344  	0.104179 
983.696160  	0.097786 
985.624976  	0.093814 
987.553792  	0.092633 
989.482608  	0.093963 
991.411424  	0.097554 
993.340240  	0.103013 
995.269056  	0.109308 
997.197872  	0.116109 
999.126688  	0.122613 
1001.055504  	0.129470 
1002.984320  	0.136139 
1004.913136  	0.142758 
1006.841952  	0.149068 
1008.770768  	0.155112 
1010.699584  	0.159984 
1012.628400  	0.163679 
1014.557216  	0.166276 
1016.486032  	0.167886 
1018.414848  	0.168819 
1020.343664  	0.169218 
1022.272480  	0.169375 
1024.201296  	0.169307 
1026.130112  	0.168552 
1028.058928  	0.168600 
1029.987744  	0.170037 
1031.916560  	0.171702 
1033.845376  	0.173069 
1035.774192  	0.175321 
1037.703008  	0.178603 
1039.631824  	0.183924 
1041.560640  	0.192072 
1043.489456  	0.204196 
1045.418272  	0.219121 
1047.347088  	0.236100 
1049.275904  	0.251701 
1051.204720  	0.263858 
1053.133536  	0.270738 
1055.062352  	0.273531 
1056.991168  	0.273763 
1058.919984  	0.273799 
1060.848800  	0.273022 
1062.777616  	0.271725 
1064.706432  	0.269357 
1066.635248  	0.266743 
1068.564064  	0.262892 
1070.492880  	0.257158 
1072.421696  	0.250589 
1074.350512  	0.246199 
1076.279328  	0.244539 
1078.208144  	0.246420 
1080.136960  	0.250014 
1082.065776  	0.253471 
1083.994592  	0.254006 
1085.923408  	0.251439 
1087.852224  	0.245003 
1089.781040  	0.237304 
1091.709856  	0.227824 
1093.638672  	0.217078 
1095.567488  	0.204613 
1097.496304  	0.192036 
1099.425120  	0.179294 
1101.353936  	0.167171 
1103.282752  	0.155391 
1105.211568  	0.144399 
1107.140384  	0.133950 
1109.069200  	0.124370 
1110.998016  	0.115733 
1112.926832  	0.107713 
1114.855648  	0.100256 
1116.784464  	0.093436 
1118.713280  	0.086810 
1120.642096  	0.080434 
1122.570912  	0.074504 
1124.499728  	0.069083 
1126.428544  	0.064279 
1128.357360  	0.060282 
1130.286176  	0.056757 
1132.214992  	0.054016 
1134.143808  	0.051598 
1136.072624  	0.049511 
1138.001440  	0.047744 
1139.930256  	0.046110 
1141.859072  	0.044322 
1143.787888  	0.042770 
1145.716704  	0.041337 
1147.645520  	0.040070 
1149.574336  	0.039097 
1151.503152  	0.038573 
1153.431968  	0.038663 
1155.360784  	0.038834 
1157.289600  	0.039380 
1159.218416  	0.040205 
1161.147232  	0.041424 
1163.076048  	0.042747 
1165.004864  	0.044239 
1166.933680  	0.045630 
1168.862496  	0.047176 
1170.791312  	0.049144 
1172.720128  	0.051007 
1174.648944  	0.053530 
1176.577760  	0.056120 
1178.506576  	0.058563 
1180.435392  	0.061174 
1182.364208  	0.064029 
1184.293024  	0.067155 
1186.221840  	0.070734 
1188.150656  	0.074982 
1190.079472  	0.079645 
1192.008288  	0.085110 
1193.937104  	0.091524 
1195.865920  	0.098690 
1197.794736  	0.106763 
1199.723552  	0.115085 
1201.652368  	0.123860 
1203.581184  	0.132517 
1205.510000  	0.140759 
1207.438816  	0.148459 
1209.367632  	0.155542 
1211.296448  	0.161103 
1213.225264  	0.165672 
1215.154080  	0.168636 
1217.082896  	0.170713 
1219.011712  	0.171605 
1220.940528  	0.171833 
1222.869344  	0.171014 
1224.798160  	0.169638 
1226.726976  	0.167336 
1228.655792  	0.164745 
1230.584608  	0.161575 
1232.513424  	0.157836 
1234.442240  	0.153338 
1236.371056  	0.148440 
1238.299872  	0.142960 
1240.228688  	0.136771 
1242.157504  	0.130464 
1244.086320  	0.124451 
1246.015136  	0.118044 
1247.943952  	0.111614 
1249.872768  	0.105391 
1251.801584  	0.099655 
1253.730400  	0.093789 
1255.659216  	0.088196 
1257.588032  	0.082870 
1259.516848  	0.077860 
1261.445664  	0.072945 
1263.374480  	0.068694 
1265.303296  	0.065094 
1267.232112  	0.062098 
1269.160928  	0.059870 
1271.089744  	0.058481 
1273.018560  	0.057830 
1274.947376  	0.057927 
1276.876192  	0.058520 
1278.805008  	0.058831 
1280.733824  	0.058479 
1282.662640  	0.057192 
1284.591456  	0.055492 
1286.520272  	0.053891 
1288.449088  	0.052905 
1290.377904  	0.052902 
1292.306720  	0.053515 
1294.235536  	0.053943 
1296.164352  	0.053564 
1298.093168  	0.052069 
1300.021984  	0.049669 
1301.950800  	0.047012 
1303.879616  	0.044349 
1305.808432  	0.041553 
1307.737248  	0.038578 
1309.666064  	0.035757 
1311.594880  	0.033450 
1313.523696  	0.031820 
1315.452512  	0.030674 
1317.381328  	0.030163 
1319.310144  	0.030371 
1321.238960  	0.030727 
1323.167776  	0.031362 
1325.096592  	0.032036 
1327.025408  	0.032450 
1328.954224  	0.032455 
1330.883040  	0.031863 
1332.811856  	0.030829 
1334.740672  	0.029689 
1336.669488  	0.028878 
1338.598304  	0.028766 
1340.527120  	0.028803 
1342.455936  	0.028137 
1344.384752  	0.027771 
1346.313568  	0.027960 
1348.242384  	0.028688 
1350.171200  	0.030011 
1352.100016  	0.031547 
1354.028832  	0.033206 
1355.957648  	0.034983 
1357.886464  	0.036421 
1359.815280  	0.037890 
1361.744096  	0.040124 
1363.672912  	0.043155 
1365.601728  	0.044399 
1367.530544  	0.045557 
1369.459360  	0.047052 
1371.388176  	0.047156 
1373.316992  	0.046608 
1375.245808  	0.045810 
1377.174624  	0.043549 
1379.103440  	0.041331 
1381.032256  	0.038987 
1382.961072  	0.036961 
1384.889888  	0.035023 
1386.818704  	0.034228 
1388.747520  	0.033451 
1390.676336  	0.031159 
1392.605152  	0.028493 
1394.533968  	0.027606 
1396.462784  	0.028150 
1398.391600  	0.028122 
1400.320416  	0.028995 
1402.249232  	0.028543 
1404.178048  	0.029039 
1406.106864  	0.030437 
1408.035680  	0.031260 
1409.964496  	0.032446 
1411.893312  	0.034624 
1413.822128  	0.036273 
1415.750944  	0.037364 
1417.679760  	0.038443 
1419.608576  	0.041262 
1421.537392  	0.040992 
1423.466208  	0.039838 
1425.395024  	0.039029 
1427.323840  	0.036538 
1429.252656  	0.034610 
1431.181472  	0.033640 
1433.110288  	0.032692 
1435.039104  	0.031791 
1436.967920  	0.034468 
1438.896736  	0.035918 
1440.825552  	0.035727 
1442.754368  	0.035981 
1444.683184  	0.035679 
1446.612000  	0.035386 
1448.540816  	0.036188 
1450.469632  	0.036142 
1452.398448  	0.035741 
1454.327264  	0.034667 
1456.256080  	0.034282 
1458.184896  	0.037941 
1460.113712  	0.037782 
1462.042528  	0.036085 
1463.971344  	0.035546 
1465.900160  	0.037866 
1467.828976  	0.038379 
1469.757792  	0.038473 
1471.686608  	0.040689 
1473.615424  	0.048153 
1475.544240  	0.052446 
1477.473056  	0.057140 
1479.401872  	0.059420 
1481.330688  	0.062338 
1483.259504  	0.064413 
1485.188320  	0.064787 
1487.117136  	0.064754 
1489.045952  	0.065605 
1490.974768  	0.066213 
1492.903584  	0.063219 
1494.832400  	0.058542 
1496.761216  	0.054783 
1498.690032  	0.050587 
1500.618848  	0.046410 
1502.547664  	0.041425 
1504.476480  	0.035901 
1506.405296  	0.033357 
1508.334112  	0.036026 
1510.262928  	0.033419 
1512.191744  	0.031691 
1514.120560  	0.030184 
1516.049376  	0.029764 
1517.978192  	0.031405 
1519.907008  	0.030933 
1521.835824  	0.036176 
1523.764640  	0.039831 
1525.693456  	0.042007 
1527.622272  	0.044736 
1529.551088  	0.044764 
1531.479904  	0.042543 
1533.408720  	0.041425 
1535.337536  	0.039371 
1537.266352  	0.034311 
1539.195168  	0.030422 
1541.123984  	0.031148 
1543.052800  	0.030641 
1544.981616  	0.030027 
1546.910432  	0.028596 
1548.839248  	0.027070 
1550.768064  	0.027562 
1552.696880  	0.026197 
1554.625696  	0.026460 
1556.554512  	0.024413 
1558.483328  	0.025889 
1560.412144  	0.036045 
1562.340960  	0.034844 
1564.269776  	0.035739 
1566.198592  	0.039078 
1568.127408  	0.040397 
1570.056224  	0.047345 
1571.985040  	0.051152 
1573.913856  	0.051347 
1575.842672  	0.054318 
1577.771488  	0.059346 
1579.700304  	0.057774 
1581.629120  	0.056620 
1583.557936  	0.055747 
1585.486752  	0.056128 
1587.415568  	0.057471 
1589.344384  	0.060682 
1591.273200  	0.064684 
1593.202016  	0.069762 
1595.130832  	0.075505 
1597.059648  	0.081764 
1598.988464  	0.086538 
1600.917280  	0.091020 
1602.846096  	0.094235 
1604.774912  	0.096404 
1606.703728  	0.096426 
1608.632544  	0.096402 
1610.561360  	0.094924 
1612.490176  	0.092765 
1614.418992  	0.088761 
1616.347808  	0.089291 
1618.276624  	0.093168 
1620.205440  	0.092608 
1622.134256  	0.093255 
1624.063072  	0.100898 
1625.991888  	0.104582 
1627.920704  	0.110972 
1629.849520  	0.118867 
1631.778336  	0.123174 
1633.707152  	0.125342 
1635.635968  	0.136347 
1637.564784  	0.148672 
1639.493600  	0.150963 
1641.422416  	0.153624 
1643.351232  	0.154255 
1645.280048  	0.153074 
1647.208864  	0.160430 
1649.137680  	0.161828 
1651.066496  	0.154560 
1652.995312  	0.155937 
1654.924128  	0.164708 
1656.852944  	0.159032 
1658.781760  	0.155205 
1660.710576  	0.151303 
1662.639392  	0.149821 
1664.568208  	0.148062 
1666.497024  	0.142325 
1668.425840  	0.137557 
1670.354656  	0.136680 
1672.283472  	0.132885 
1674.212288  	0.128056 
1676.141104  	0.127936 
1678.069920  	0.124460 
1679.998736  	0.121597 
1681.927552  	0.118069 
1683.856368  	0.118649 
1685.785184  	0.125008 
1687.714000  	0.121675 
1689.642816  	0.121233 
1691.571632  	0.120376 
1693.500448  	0.116906 
1695.429264  	0.115617 
1697.358080  	0.116807 
1699.286896  	0.113463 
1701.215712  	0.117736 
1703.144528  	0.113847 
1705.073344  	0.110711 
1707.002160  	0.108870 
1708.930976  	0.105006 
1710.859792  	0.099859 
1712.788608  	0.093493 
1714.717424  	0.086158 
1716.646240  	0.078800 
1718.575056  	0.071740 
1720.503872  	0.063026 
1722.432688  	0.054607 
1724.361504  	0.046845 
1726.290320  	0.039655 
1728.219136  	0.033098 
1730.147952  	0.027626 
1732.076768  	0.022072 
1734.005584  	0.019992 
1735.934400  	0.018082 
1737.863216  	0.014150 
1739.792032  	0.012110 
1741.720848  	0.011043 
1743.649664  	0.009777 
1745.578480  	0.008244 
1747.507296  	0.006803 
1749.436112  	0.006458 
1751.364928  	0.006888 
1753.293744  	0.006264 
1755.222560  	0.004653 
1757.151376  	0.004860 
1759.080192  	0.003923 
1761.009008  	0.003534 
1762.937824  	0.004251 
1764.866640  	0.003461 
1766.795456  	0.002428 
1768.724272  	0.002350 
1770.653088  	0.000704 
1772.581904  	0.001874 
1774.510720  	0.002548 
1776.439536  	0.002263 
1778.368352  	0.001502 
1780.297168  	0.001429 
1782.225984  	0.001608 
1784.154800  	0.001445 
1786.083616  	0.001326 
1788.012432  	0.000670 
1789.941248  	-0.000017 
1791.870064  	0.000646 
1793.798880  	0.001283 
1795.727696  	0.000861 
1797.656512  	0.000086 
1799.585328  	-0.000309 
1801.514144  	0.000551 
1803.442960  	0.000572 
1805.371776  	-0.000082 
1807.300592  	-0.000208 
1809.229408  	-0.000467 
1811.158224  	-0.000169 
1813.087040  	-0.000138 
1815.015856  	-0.000543 
1816.944672  	-0.000527 
1818.873488  	-0.000272 
1820.802304  	-0.000400 
1822.731120  	-0.000793 
1824.659936  	-0.000827 
1826.588752  	-0.000847 
1828.517568  	-0.001739 
1830.446384  	-0.000296 
1832.375200  	-0.000186 
1834.304016  	-0.000577 
1836.232832  	-0.000665 
1838.161648  	-0.000809 
1840.090464  	-0.001165 
1842.019280  	-0.001794 
1843.948096  	-0.001154 
1845.876912  	-0.000138 
1847.805728  	-0.000313 
1849.734544  	-0.000226 
1851.663360  	-0.000741 
1853.592176  	-0.000797 
1855.520992  	-0.001103 
1857.449808  	-0.001027 
1859.378624  	-0.000805 
1861.307440  	-0.000584 
1863.236256  	-0.001190 
1865.165072  	-0.001815 
1867.093888  	-0.002160 
1869.022704  	-0.000849 
1870.951520  	-0.000564 
1872.880336  	-0.000994 
1874.809152  	-0.001257 
1876.737968  	-0.001316 
1878.666784  	-0.001255 
1880.595600  	-0.001151 
1882.524416  	-0.001354 
1884.453232  	-0.001234 
1886.382048  	-0.001471 
1888.310864  	-0.001521 
1890.239680  	-0.000968 
1892.168496  	-0.001295 
1894.097312  	-0.001789 
1896.026128  	-0.001279 
1897.954944  	-0.001295 
1899.883760  	-0.001498 
1901.812576  	-0.001431 
1903.741392  	-0.001062 
1905.670208  	-0.001294 
1907.599024  	-0.001438 
1909.527840  	-0.001323 
1911.456656  	-0.001111 
1913.385472  	-0.001333 
1915.314288  	-0.001689 
1917.243104  	-0.001859 
1919.171920  	-0.001246 
1921.100736  	-0.001463 
1923.029552  	-0.000986 
1924.958368  	-0.001782 
1926.887184  	-0.002087 
1928.816000  	-0.001605 
1930.744816  	-0.001370 
1932.673632  	-0.001663 
1934.602448  	-0.001896 
1936.531264  	-0.002198 
1938.460080  	-0.002711 
1940.388896  	-0.003166 
1942.317712  	-0.001770 
1944.246528  	-0.001332 
1946.175344  	-0.001610 
1948.104160  	-0.002145 
1950.032976  	-0.002712 
1951.961792  	-0.002619 
1953.890608  	-0.002163 
1955.819424  	-0.002762 
1957.748240  	-0.002635 
1959.677056  	-0.002759 
1961.605872  	-0.002991 
1963.534688  	-0.003788 
1965.463504  	-0.003725 
1967.392320  	-0.005099 
1969.321136  	-0.004569 
1971.249952  	-0.003965 
1973.178768  	-0.003915 
1975.107584  	-0.003688 
1977.036400  	-0.002924 
1978.965216  	-0.001583 
1980.894032  	-0.001064 
1982.822848  	-0.001671 
1984.751664  	-0.001989 
1986.680480  	-0.001846 
1988.609296  	-0.001124 
1990.538112  	-0.002345 
1992.466928  	-0.002157 
1994.395744  	-0.002252 
1996.324560  	-0.001976 
1998.253376  	-0.001698 
2000.182192  	-0.002168 
2002.111008  	-0.003037 
2004.039824  	-0.002599 
2005.968640  	-0.001652 
2007.897456  	-0.002044 
2009.826272  	-0.002765 
2011.755088  	-0.002931 
2013.683904  	-0.003335 
2015.612720  	-0.003582 
2017.541536  	-0.002324 
2019.470352  	-0.000427 
2021.399168  	-0.000723 
2023.327984  	-0.000535 
2025.256800  	-0.001191 
2027.185616  	-0.001336 
2029.114432  	-0.001083 
2031.043248  	-0.001542 
2032.972064  	-0.000769 
2034.900880  	0.000638 
2036.829696  	-0.000026 
2038.758512  	0.000624 
2040.687328  	0.000773 
2042.616144  	0.000534 
2044.544960  	-0.000151 
2046.473776  	-0.000192 
2048.402592  	-0.000043 
2050.331408  	-0.000043 
2052.260224  	-0.001174 
2054.189040  	-0.001764 
2056.117856  	-0.001667 
2058.046672  	-0.001050 
2059.975488  	-0.001002 
2061.904304  	-0.001021 
2063.833120  	-0.001011 
2065.761936  	-0.000605 
2067.690752  	-0.000516 
2069.619568  	-0.000540 
2071.548384  	-0.001275 
2073.477200  	-0.001216 
2075.406016  	-0.001260 
2077.334832  	-0.001142 
2079.263648  	-0.000689 
2081.192464  	-0.000174 
2083.121280  	-0.000637 
2085.050096  	-0.001189 
2086.978912  	-0.001120 
2088.907728  	-0.000607 
2090.836544  	-0.000803 
2092.765360  	-0.001168 
2094.694176  	-0.001378 
2096.622992  	-0.000936 
2098.551808  	-0.000636 
2100.480624  	-0.000625 
2102.409440  	-0.000763 
2104.338256  	-0.000902 
2106.267072  	-0.000633 
2108.195888  	-0.000111 
2110.124704  	-0.000362 
2112.053520  	-0.000553 
2113.982336  	-0.000638 
2115.911152  	-0.000467 
2117.839968  	-0.000377 
2119.768784  	-0.000513 
2121.697600  	-0.001114 
2123.626416  	-0.001053 
2125.555232  	-0.001646 
2127.484048  	-0.002175 
2129.412864  	-0.002167 
2131.341680  	-0.001859 
2133.270496  	-0.001992 
2135.199312  	-0.001564 
2137.128128  	-0.000941 
2139.056944  	-0.000761 
2140.985760  	-0.001258 
2142.914576  	-0.001082 
2144.843392  	-0.000720 
2146.772208  	-0.000637 
2148.701024  	-0.000305 
2150.629840  	0.000731 
2152.558656  	-0.000111 
2154.487472  	-0.001059 
2156.416288  	-0.000645 
2158.345104  	0.001620 
2160.273920  	0.003952 
2162.202736  	0.003979 
2164.131552  	0.003334 
2166.060368  	0.002763 
2167.989184  	0.001587 
2169.918000  	0.002442 
2171.846816  	0.003040 
2173.775632  	0.002202 
2175.704448  	0.001947 
2177.633264  	0.001612 
2179.562080  	0.000473 
2181.490896  	0.000689 
2183.419712  	0.000948 
2185.348528  	0.000428 
2187.277344  	0.000601 
2189.206160  	0.002022 
2191.134976  	0.002274 
2193.063792  	0.002246 
2194.992608  	0.001448 
2196.921424  	0.001369 
2198.850240  	0.001343 
2200.779056  	0.001242 
2202.707872  	0.000666 
2204.636688  	0.000559 
2206.565504  	0.001130 
2208.494320  	0.001927 
2210.423136  	0.001238 
2212.351952  	0.000841 
2214.280768  	0.000839 
2216.209584  	0.000969 
2218.138400  	0.000400 
2220.067216  	0.000532 
2221.996032  	0.000393 
2223.924848  	0.000539 
2225.853664  	0.000423 
2227.782480  	0.000261 
2229.711296  	0.000679 
2231.640112  	0.000548 
2233.568928  	-0.000355 
2235.497744  	-0.000365 
2237.426560  	-0.000609 
2239.355376  	-0.000575 
2241.284192  	-0.000466 
2243.213008  	-0.000571 
2245.141824  	-0.000422 
2247.070640  	0.000301 
2248.999456  	0.000052 
2250.928272  	-0.000348 
2252.857088  	-0.000485 
2254.785904  	-0.000174 
2256.714720  	0.000371 
2258.643536  	0.000142 
2260.572352  	-0.000338 
2262.501168  	-0.000236 
2264.429984  	-0.000129 
2266.358800  	-0.000135 
2268.287616  	0.000020 
2270.216432  	0.000134 
2272.145248  	0.000007 
2274.074064  	0.000250 
2276.002880  	0.000490 
2277.931696  	0.000774 
2279.860512  	0.000892 
2281.789328  	0.001125 
2283.718144  	0.001162 
2285.646960  	0.001187 
2287.575776  	0.001020 
2289.504592  	0.001150 
2291.433408  	0.001420 
2293.362224  	0.001707 
2295.291040  	0.001853 
2297.219856  	0.001800 
2299.148672  	0.001937 
2301.077488  	0.002360 
2303.006304  	0.002622 
2304.935120  	0.002678 
2306.863936  	0.002827 
2308.792752  	0.003034 
2310.721568  	0.003345 
2312.650384  	0.003728 
2314.579200  	0.003460 
2316.508016  	0.003170 
2318.436832  	0.003272 
2320.365648  	0.003845 
2322.294464  	0.004657 
2324.223280  	0.004515 
2326.152096  	0.003071 
2328.080912  	0.002487 
2330.009728  	0.002619 
2331.938544  	0.002740 
2333.867360  	0.002298 
2335.796176  	0.001939 
2337.724992  	0.001842 
2339.653808  	0.001955 
2341.582624  	0.002389 
2343.511440  	0.003407 
2345.440256  	0.004472 
2347.369072  	0.004230 
2349.297888  	0.002665 
2351.226704  	0.001980 
2353.155520  	0.002116 
2355.084336  	0.002201 
2357.013152  	0.002475 
2358.941968  	0.003263 
2360.870784  	0.004108 
2362.799600  	0.004494 
2364.728416  	0.004449 
2366.657232  	0.004863 
2368.586048  	0.005094 
2370.514864  	0.004889 
2372.443680  	0.004516 
2374.372496  	0.004243 
2376.301312  	0.004172 
2378.230128  	0.004080 
2380.158944  	0.003564 
2382.087760  	0.002857 
2384.016576  	0.002118 
2385.945392  	0.001397 
2387.874208  	0.001089 
2389.803024  	0.001176 
2391.731840  	0.001113 
2393.660656  	0.000786 
2395.589472  	0.000567 
2397.518288  	0.000723 
2399.447104  	0.000865 
2401.375920  	0.001038 
2403.304736  	0.001138 
2405.233552  	0.001148 
2407.162368  	0.001176 
2409.091184  	0.001275 
2411.020000  	0.001231 
2412.948816  	0.001035 
2414.877632  	0.001218 
2416.806448  	0.001558 
2418.735264  	0.001388 
2420.664080  	0.001309 
2422.592896  	0.001378 
2424.521712  	0.001475 
2426.450528  	0.001612 
2428.379344  	0.001859 
2430.308160  	0.002089 
2432.236976  	0.002225 
2434.165792  	0.002351 
2436.094608  	0.002419 
2438.023424  	0.002313 
2439.952240  	0.002041 
2441.881056  	0.002194 
2443.809872  	0.002758 
2445.738688  	0.002802 
2447.667504  	0.002551 
2449.596320  	0.002636 
2451.525136  	0.002937 
2453.453952  	0.003002 
2455.382768  	0.002943 
2457.311584  	0.002957 
2459.240400  	0.002915 
2461.169216  	0.002761 
2463.098032  	0.002802 
2465.026848  	0.002914 
2466.955664  	0.002972 
2468.884480  	0.003119 
2470.813296  	0.003287 
2472.742112  	0.003398 
2474.670928  	0.003380 
2476.599744  	0.003276 
2478.528560  	0.003408 
2480.457376  	0.003559 
2482.386192  	0.003460 
2484.315008  	0.003403 
2486.243824  	0.003652 
2488.172640  	0.004044 
2490.101456  	0.004165 
2492.030272  	0.003928 
2493.959088  	0.003726 
2495.887904  	0.003876 
2497.816720  	0.004251 
2499.745536  	0.004296 
2501.674352  	0.004431 
2503.603168  	0.004618 
2505.531984  	0.004623 
2507.460800  	0.004598 
2509.389616  	0.004642 
2511.318432  	0.004674 
2513.247248  	0.004721 
2515.176064  	0.004753 
2517.104880  	0.004905 
2519.033696  	0.005126 
2520.962512  	0.005330 
2522.891328  	0.005544 
2524.820144  	0.005536 
2526.748960  	0.005313 
2528.677776  	0.005426 
2530.606592  	0.005599 
2532.535408  	0.005705 
2534.464224  	0.005735 
2536.393040  	0.005548 
2538.321856  	0.005424 
2540.250672  	0.005488 
2542.179488  	0.005617 
2544.108304  	0.005834 
2546.037120  	0.005859 
2547.965936  	0.005991 
2549.894752  	0.006062 
2551.823568  	0.006196 
2553.752384  	0.006203 
2555.681200  	0.006263 
2557.610016  	0.006522 
2559.538832  	0.006720 
2561.467648  	0.006738 
2563.396464  	0.006594 
2565.325280  	0.006635 
2567.254096  	0.006866 
2569.182912  	0.006877 
2571.111728  	0.006852 
2573.040544  	0.007036 
2574.969360  	0.007425 
2576.898176  	0.007835 
2578.826992  	0.007794 
2580.755808  	0.007606 
2582.684624  	0.007741 
2584.613440  	0.007826 
2586.542256  	0.007879 
2588.471072  	0.007924 
2590.399888  	0.007911 
2592.328704  	0.007964 
2594.257520  	0.008206 
2596.186336  	0.008396 
2598.115152  	0.008410 
2600.043968  	0.008394 
2601.972784  	0.008396 
2603.901600  	0.008435 
2605.830416  	0.008548 
2607.759232  	0.008696 
2609.688048  	0.008762 
2611.616864  	0.008770 
2613.545680  	0.008994 
2615.474496  	0.009294 
2617.403312  	0.009385 
2619.332128  	0.009365 
2621.260944  	0.009389 
2623.189760  	0.009507 
2625.118576  	0.009621 
2627.047392  	0.009824 
2628.976208  	0.010076 
2630.905024  	0.010111 
2632.833840  	0.010237 
2634.762656  	0.010440 
2636.691472  	0.010620 
2638.620288  	0.010799 
2640.549104  	0.010806 
2642.477920  	0.010899 
2644.406736  	0.011057 
2646.335552  	0.011218 
2648.264368  	0.011383 
2650.193184  	0.011451 
2652.122000  	0.011515 
2654.050816  	0.011583 
2655.979632  	0.011726 
2657.908448  	0.011853 
2659.837264  	0.011974 
2661.766080  	0.012127 
2663.694896  	0.012134 
2665.623712  	0.012100 
2667.552528  	0.012302 
2669.481344  	0.012505 
2671.410160  	0.012735 
2673.338976  	0.012788 
2675.267792  	0.012751 
2677.196608  	0.012867 
2679.125424  	0.013044 
2681.054240  	0.013139 
2682.983056  	0.013232 
2684.911872  	0.013389 
2686.840688  	0.013575 
2688.769504  	0.013724 
2690.698320  	0.013755 
2692.627136  	0.013874 
2694.555952  	0.014057 
2696.484768  	0.014088 
2698.413584  	0.014204 
2700.342400  	0.014326 
2702.271216  	0.014541 
2704.200032  	0.014738 
2706.128848  	0.014767 
2708.057664  	0.014884 
2709.986480  	0.015043 
2711.915296  	0.015133 
2713.844112  	0.015262 
2715.772928  	0.015454 
2717.701744  	0.015526 
2719.630560  	0.015621 
2721.559376  	0.015815 
2723.488192  	0.015832 
2725.417008  	0.015979 
2727.345824  	0.016189 
2729.274640  	0.016237 
2731.203456  	0.016294 
2733.132272  	0.016589 
2735.061088  	0.016803 
2736.989904  	0.016902 
2738.918720  	0.017061 
2740.847536  	0.017157 
2742.776352  	0.017317 
2744.705168  	0.017499 
2746.633984  	0.017471 
2748.562800  	0.017539 
2750.491616  	0.017747 
2752.420432  	0.017906 
2754.349248  	0.017931 
2756.278064  	0.018022 
2758.206880  	0.018031 
2760.135696  	0.018035 
2762.064512  	0.018096 
2763.993328  	0.018132 
2765.922144  	0.018052 
2767.850960  	0.018080 
2769.779776  	0.018178 
2771.708592  	0.018184 
2773.637408  	0.018128 
2775.566224  	0.018086 
2777.495040  	0.018114 
2779.423856  	0.018139 
2781.352672  	0.018104 
2783.281488  	0.018126 
2785.210304  	0.018149 
2787.139120  	0.018205 
2789.067936  	0.018205 
2790.996752  	0.018119 
2792.925568  	0.018084 
2794.854384  	0.018089 
2796.783200  	0.018167 
2798.712016  	0.018295 
2800.640832  	0.018364 
2802.569648  	0.018370 
2804.498464  	0.018216 
2806.427280  	0.018221 
2808.356096  	0.018285 
2810.284912  	0.018356 
2812.213728  	0.018324 
2814.142544  	0.018290 
2816.071360  	0.018231 
2818.000176  	0.018350 
2819.928992  	0.018345 
2821.857808  	0.018360 
2823.786624  	0.018484 
2825.715440  	0.018401 
2827.644256  	0.018200 
2829.573072  	0.018189 
2831.501888  	0.018293 
2833.430704  	0.018184 
2835.359520  	0.017922 
2837.288336  	0.017748 
2839.217152  	0.017714 
2841.145968  	0.017640 
2843.074784  	0.017535 
2845.003600  	0.017421 
2846.932416  	0.017443 
2848.861232  	0.017405 
2850.790048  	0.017337 
2852.718864  	0.017398 
2854.647680  	0.017347 
2856.576496  	0.017285 
2858.505312  	0.017341 
2860.434128  	0.017342 
2862.362944  	0.017300 
2864.291760  	0.017269 
2866.220576  	0.017313 
2868.149392  	0.017342 
2870.078208  	0.017343 
2872.007024  	0.017574 
2873.935840  	0.017959 
2875.864656  	0.018152 
2877.793472  	0.018336 
2879.722288  	0.018625 
2881.651104  	0.019028 
2883.579920  	0.019237 
2885.508736  	0.019326 
2887.437552  	0.019577 
2889.366368  	0.019580 
2891.295184  	0.019484 
2893.224000  	0.019409 
2895.152816  	0.019320 
2897.081632  	0.019053 
2899.010448  	0.018509 
2900.939264  	0.018103 
2902.868080  	0.018355 
2904.796896  	0.018658 
2906.725712  	0.018737 
2908.654528  	0.018810 
2910.583344  	0.019059 
2912.512160  	0.019502 
2914.440976  	0.020080 
2916.369792  	0.020463 
2918.298608  	0.020703 
2920.227424  	0.021140 
2922.156240  	0.021629 
2924.085056  	0.022158 
2926.013872  	0.022759 
2927.942688  	0.023364 
2929.871504  	0.023998 
2931.800320  	0.024523 
2933.729136  	0.025114 
2935.657952  	0.025672 
2937.586768  	0.026052 
2939.515584  	0.026360 
2941.444400  	0.026706 
2943.373216  	0.026998 
2945.302032  	0.027145 
2947.230848  	0.027073 
2949.159664  	0.027053 
2951.088480  	0.026859 
2953.017296  	0.026540 
2954.946112  	0.026242 
2956.874928  	0.025999 
2958.803744  	0.025620 
2960.732560  	0.025209 
2962.661376  	0.024619 
2964.590192  	0.024115 
2966.519008  	0.023605 
2968.447824  	0.022832 
2970.376640  	0.022066 
2972.305456  	0.021316 
2974.234272  	0.020751 
2976.163088  	0.020369 
2978.091904  	0.019958 
2980.020720  	0.019498 
2981.949536  	0.019336 
2983.878352  	0.019432 
2985.807168  	0.019403 
2987.735984  	0.019509 
2989.664800  	0.019966 
2991.593616  	0.020790 
2993.522432  	0.021369 
2995.451248  	0.021714 
2997.380064  	0.022267 
2999.308880  	0.022814 
3001.237696  	0.023167 
3003.166512  	0.023479 
3005.095328  	0.023835 
3007.024144  	0.024073 
3008.952960  	0.024454 
3010.881776  	0.024914 
3012.810592  	0.025341 
3014.739408  	0.025716 
3016.668224  	0.025945 
3018.597040  	0.026258 
3020.525856  	0.026557 
3022.454672  	0.027005 
3024.383488  	0.027286 
3026.312304  	0.027611 
3028.241120  	0.027892 
3030.169936  	0.028142 
3032.098752  	0.028409 
3034.027568  	0.028710 
3035.956384  	0.029084 
3037.885200  	0.029218 
3039.814016  	0.029368 
3041.742832  	0.029677 
3043.671648  	0.030018 
3045.600464  	0.030456 
3047.529280  	0.030703 
3049.458096  	0.030906 
3051.386912  	0.031119 
3053.315728  	0.031257 
3055.244544  	0.031419 
3057.173360  	0.032036 
3059.102176  	0.032546 
3061.030992  	0.032919 
3062.959808  	0.033153 
3064.888624  	0.033526 
3066.817440  	0.034031 
3068.746256  	0.034540 
3070.675072  	0.034853 
3072.603888  	0.035112 
3074.532704  	0.035625 
3076.461520  	0.036000 
3078.390336  	0.036361 
3080.319152  	0.036882 
3082.247968  	0.037328 
3084.176784  	0.037620 
3086.105600  	0.037914 
3088.034416  	0.038362 
3089.963232  	0.038854 
3091.892048  	0.039281 
3093.820864  	0.039678 
3095.749680  	0.040187 
3097.678496  	0.040549 
3099.607312  	0.041060 
3101.536128  	0.041772 
3103.464944  	0.042111 
3105.393760  	0.042424 
3107.322576  	0.042726 
3109.251392  	0.043025 
3111.180208  	0.043431 
3113.109024  	0.043590 
3115.037840  	0.043779 
3116.966656  	0.044282 
3118.895472  	0.044543 
3120.824288  	0.044426 
3122.753104  	0.044710 
3124.681920  	0.045011 
3126.610736  	0.045460 
3128.539552  	0.045785 
3130.468368  	0.045619 
3132.397184  	0.045810 
3134.326000  	0.046178 
3136.254816  	0.046271 
3138.183632  	0.046243 
3140.112448  	0.046477 
3142.041264  	0.046695 
3143.970080  	0.046906 
3145.898896  	0.047151 
3147.827712  	0.047324 
3149.756528  	0.047572 
3151.685344  	0.047862 
3153.614160  	0.048104 
3155.542976  	0.048213 
3157.471792  	0.048433 
3159.400608  	0.048944 
3161.329424  	0.049151 
3163.258240  	0.049144 
3165.187056  	0.049255 
3167.115872  	0.049522 
3169.044688  	0.049951 
3170.973504  	0.050289 
3172.902320  	0.050156 
3174.831136  	0.049996 
3176.759952  	0.050160 
3178.688768  	0.050453 
3180.617584  	0.050430 
3182.546400  	0.050325 
3184.475216  	0.050253 
3186.404032  	0.050138 
3188.332848  	0.049915 
3190.261664  	0.049909 
3192.190480  	0.049994 
3194.119296  	0.049737 
3196.048112  	0.049333 
3197.976928  	0.049235 
3199.905744  	0.049068 
3201.834560  	0.048644 
3203.763376  	0.048297 
3205.692192  	0.047978 
3207.621008  	0.047412 
3209.549824  	0.047243 
3211.478640  	0.047223 
3213.407456  	0.047065 
3215.336272  	0.046983 
3217.265088  	0.046400 
3219.193904  	0.046115 
3221.122720  	0.046023 
3223.051536  	0.045705 
3224.980352  	0.045298 
3226.909168  	0.044897 
3228.837984  	0.044632 
3230.766800  	0.044492 
3232.695616  	0.044118 
3234.624432  	0.043776 
3236.553248  	0.043743 
3238.482064  	0.043775 
3240.410880  	0.043789 
3242.339696  	0.043611 
3244.268512  	0.043734 
3246.197328  	0.044100 
3248.126144  	0.043768 
3250.054960  	0.043722 
3251.983776  	0.043676 
3253.912592  	0.043929 
3255.841408  	0.044204 
3257.770224  	0.044300 
3259.699040  	0.044584 
3261.627856  	0.044762 
3263.556672  	0.044553 
3265.485488  	0.044602 
3267.414304  	0.044877 
3269.343120  	0.045113 
3271.271936  	0.045267 
3273.200752  	0.045357 
3275.129568  	0.045681 
3277.058384  	0.045993 
3278.987200  	0.046079 
3280.916016  	0.046120 
3282.844832  	0.046140 
3284.773648  	0.046247 
3286.702464  	0.046293 
3288.631280  	0.046414 
3290.560096  	0.046530 
3292.488912  	0.046983 
3294.417728  	0.047191 
3296.346544  	0.047258 
3298.275360  	0.047678 
3300.204176  	0.047959 
3302.132992  	0.048304 
3304.061808  	0.048555 
3305.990624  	0.048602 
3307.919440  	0.048803 
3309.848256  	0.049177 
3311.777072  	0.049505 
3313.705888  	0.049836 
3315.634704  	0.049910 
3317.563520  	0.050053 
3319.492336  	0.050484 
3321.421152  	0.050671 
3323.349968  	0.050631 
3325.278784  	0.050794 
3327.207600  	0.051211 
3329.136416  	0.051171 
3331.065232  	0.051176 
3332.994048  	0.051514 
3334.922864  	0.051778 
3336.851680  	0.052074 
3338.780496  	0.051978 
3340.709312  	0.051549 
3342.638128  	0.051358 
3344.566944  	0.051084 
3346.495760  	0.050882 
3348.424576  	0.050550 
3350.353392  	0.050537 
3352.282208  	0.050562 
3354.211024  	0.050243 
3356.139840  	0.050132 
3358.068656  	0.049922 
3359.997472  	0.049398 
3361.926288  	0.048970 
3363.855104  	0.048573 
3365.783920  	0.048672 
3367.712736  	0.048478 
3369.641552  	0.048251 
3371.570368  	0.048112 
3373.499184  	0.047805 
3375.428000  	0.047319 
3377.356816  	0.047131 
3379.285632  	0.047290 
3381.214448  	0.047136 
3383.143264  	0.046664 
3385.072080  	0.046652 
3387.000896  	0.046441 
3388.929712  	0.045871 
3390.858528  	0.045299 
3392.787344  	0.045420 
3394.716160  	0.045339 
3396.644976  	0.045121 
3398.573792  	0.045010 
3400.502608  	0.044608 
3402.431424  	0.044549 
3404.360240  	0.044503 
3406.289056  	0.044223 
3408.217872  	0.043926 
3410.146688  	0.043625 
3412.075504  	0.043264 
3414.004320  	0.043249 
3415.933136  	0.043020 
3417.861952  	0.042244 
3419.790768  	0.041934 
3421.719584  	0.042284 
3423.648400  	0.041951 
3425.577216  	0.041365 
3427.506032  	0.041093 
3429.434848  	0.040831 
3431.363664  	0.040540 
3433.292480  	0.040237 
3435.221296  	0.039937 
3437.150112  	0.039543 
3439.078928  	0.039169 
3441.007744  	0.038828 
3442.936560  	0.038682 
3444.865376  	0.037883 
3446.794192  	0.038081 
3448.723008  	0.038731 
3450.651824  	0.037568 
3452.580640  	0.036838 
3454.509456  	0.036515 
3456.438272  	0.036065 
3458.367088  	0.035534 
3460.295904  	0.035290 
3462.224720  	0.035337 
3464.153536  	0.034943 
3466.082352  	0.034318 
3468.011168  	0.033877 
3469.939984  	0.033053 
3471.868800  	0.032287 
3473.797616  	0.031781 
3475.726432  	0.031589 
3477.655248  	0.030916 
3479.584064  	0.030170 
3481.512880  	0.030229 
3483.441696  	0.030105 
3485.370512  	0.028926 
3487.299328  	0.028409 
3489.228144  	0.028304 
3491.156960  	0.027649 
3493.085776  	0.026916 
3495.014592  	0.026438 
3496.943408  	0.026275 
3498.872224  	0.025477 
3500.801040  	0.024196 
3502.729856  	0.024682 
3504.658672  	0.025513 
3506.587488  	0.024073 
3508.516304  	0.023197 
3510.445120  	0.023766 
3512.373936  	0.023265 
3514.302752  	0.022347 
3516.231568  	0.021636 
3518.160384  	0.021264 
3520.089200  	0.020467 
3522.018016  	0.019841 
3523.946832  	0.020490 
3525.875648  	0.019848 
3527.804464  	0.019509 
3529.733280  	0.019872 
3531.662096  	0.019468 
3533.590912  	0.018143 
3535.519728  	0.017829 
3537.448544  	0.018435 
3539.377360  	0.017531 
3541.306176  	0.016412 
3543.234992  	0.015810 
3545.163808  	0.016624 
3547.092624  	0.017457 
3549.021440  	0.016207 
3550.950256  	0.014638 
3552.879072  	0.015521 
3554.807888  	0.015338 
3556.736704  	0.014094 
3558.665520  	0.013377 
3560.594336  	0.013157 
3562.523152  	0.012269 
3564.451968  	0.010468 
3566.380784  	0.011938 
3568.309600  	0.016067 
3570.238416  	0.014029 
3572.167232  	0.011490 
3574.096048  	0.010715 
3576.024864  	0.010251 
3577.953680  	0.009677 
3579.882496  	0.009373 
3581.811312  	0.008723 
3583.740128  	0.006975 
3585.668944  	0.005697 
3587.597760  	0.008763 
3589.526576  	0.009582 
3591.455392  	0.006122 
3593.384208  	0.005037 
3595.313024  	0.005994 
3597.241840  	0.005484 
3599.170656  	0.004343 
3601.099472  	0.004889 
3603.028288  	0.004360 
3604.957104  	0.001959 
3606.885920  	0.001031 
3608.814736  	0.002418 
3610.743552  	0.000904 
3612.672368  	0.000032 
3614.601184  	0.000404 
3616.530000  	-0.002199 
3618.458816  	-0.001913 
3620.387632  	0.001097 
3622.316448  	-0.000416 
3624.245264  	-0.003361 
3626.174080  	-0.006700 
3628.102896  	-0.005960 
3630.031712  	0.000619 
3631.960528  	-0.002978 
3633.889344  	-0.004543 
3635.818160  	-0.004985 
3637.746976  	-0.006077 
3639.675792  	-0.006910 
3641.604608  	-0.007792 
3643.533424  	-0.008955 
3645.462240  	-0.012073 
3647.391056  	-0.012576 
3649.319872  	-0.008614 
3651.248688  	-0.004697 
3653.177504  	-0.008745 
3655.106320  	-0.011277 
3657.035136  	-0.008924 
3658.963952  	-0.009740 
3660.892768  	-0.010620 
3662.821584  	-0.011091 
3664.750400  	-0.011984 
3666.679216  	-0.014083 
3668.608032  	-0.015169 
3670.536848  	-0.011098 
3672.465664  	-0.013608 
3674.394480  	-0.015692 
3676.323296  	-0.008149 
3678.252112  	-0.010031 
3680.180928  	-0.010884 
3682.109744  	-0.011628 
3684.038560  	-0.012730 
3685.967376  	-0.014738 
3687.896192  	-0.014896 
3689.825008  	-0.011314 
3691.753824  	-0.009608 
3693.682640  	-0.010733 
3695.611456  	-0.011563 
3697.540272  	-0.011680 
3699.469088  	-0.012954 
3701.397904  	-0.012004 
3703.326720  	-0.010499 
3705.255536  	-0.011666 
3707.184352  	-0.013397 
3709.113168  	-0.014162 
3711.041984  	-0.011714 
3712.970800  	-0.008496 
3714.899616  	-0.009838 
3716.828432  	-0.011834 
3718.757248  	-0.011879 
3720.686064  	-0.012040 
3722.614880  	-0.011545 
3724.543696  	-0.011339 
3726.472512  	-0.010192 
3728.401328  	-0.010999 
3730.330144  	-0.013816 
3732.258960  	-0.013748 
3734.187776  	-0.012373 
3736.116592  	-0.008532 
3738.045408  	-0.009195 
3739.974224  	-0.011726 
3741.903040  	-0.014531 
3743.831856  	-0.013346 
3745.760672  	-0.009173 
3747.689488  	-0.013799 
3749.618304  	-0.013608 
3751.547120  	-0.009201 
3753.475936  	-0.008329 
3755.404752  	-0.011155 
3757.333568  	-0.011954 
3759.262384  	-0.010897 
3761.191200  	-0.009798 
3763.120016  	-0.011776 
3765.048832  	-0.011520 
3766.977648  	-0.011340 
3768.906464  	-0.011668 
3770.835280  	-0.009479 
3772.764096  	-0.010086 
3774.692912  	-0.011145 
3776.621728  	-0.012264 
3778.550544  	-0.012170 
3780.479360  	-0.010041 
3782.408176  	-0.011293 
3784.336992  	-0.011169 
3786.265808  	-0.010186 
3788.194624  	-0.010601 
3790.123440  	-0.011088 
3792.052256  	-0.011536 
3793.981072  	-0.012782 
3795.909888  	-0.012478 
3797.838704  	-0.012226 
3799.767520  	-0.014281 
3801.696336  	-0.010385 
3803.625152  	-0.010140 
3805.553968  	-0.012854 
3807.482784  	-0.009741 
3809.411600  	-0.010057 
3811.340416  	-0.011544 
3813.269232  	-0.013508 
3815.198048  	-0.013329 
3817.126864  	-0.010994 
3819.055680  	-0.014351 
3820.984496  	-0.011265 
3822.913312  	-0.008751 
3824.842128  	-0.011978 
3826.770944  	-0.011523 
3828.699760  	-0.011668 
3830.628576  	-0.012536 
3832.557392  	-0.012219 
3834.486208  	-0.013277 
3836.415024  	-0.013732 
3838.343840  	-0.011839 
3840.272656  	-0.010341 
3842.201472  	-0.010753 
3844.130288  	-0.010168 
3846.059104  	-0.010838 
3847.987920  	-0.012917 
3849.916736  	-0.015264 
3851.845552  	-0.016256 
3853.774368  	-0.008127 
3855.703184  	-0.007538 
3857.632000  	-0.010085 
3859.560816  	-0.012029 
3861.489632  	-0.012795 
3863.418448  	-0.012192 
3865.347264  	-0.010156 
3867.276080  	-0.012412 
3869.204896  	-0.012606 
3871.133712  	-0.009790 
3873.062528  	-0.011445 
3874.991344  	-0.009663 
3876.920160  	-0.011652 
3878.848976  	-0.013226 
3880.777792  	-0.010614 
3882.706608  	-0.011209 
3884.635424  	-0.011866 
3886.564240  	-0.008779 
3888.493056  	-0.011625 
3890.421872  	-0.012429 
3892.350688  	-0.009882 
3894.279504  	-0.010409 
3896.208320  	-0.012478 
3898.137136  	-0.013114 
3900.065952  	-0.011730 
3901.994768  	-0.011194 
3903.923584  	-0.009592 
3905.852400  	-0.008800 
3907.781216  	-0.010400 
3909.710032  	-0.011447 
3911.638848  	-0.011419 
3913.567664  	-0.011648 
3915.496480  	-0.011888 
3917.425296  	-0.010661 
3919.354112  	-0.010529 
3921.282928  	-0.011274 
3923.211744  	-0.011882 
3925.140560  	-0.010566 
3927.069376  	-0.011036 
3928.998192  	-0.011928 
3930.927008  	-0.011359 
3932.855824  	-0.009977 
3934.784640  	-0.010321 
3936.713456  	-0.011141 
3938.642272  	-0.011347 
3940.571088  	-0.011958 
3942.499904  	-0.010979 
3944.428720  	-0.010486 
3946.357536  	-0.011596 
3948.286352  	-0.011361 
3950.215168  	-0.010770 
3952.143984  	-0.010884 
3954.072800  	-0.011110 
3956.001616  	-0.011194 
3957.930432  	-0.011219 
3959.859248  	-0.011319 
3961.788064  	-0.010837 
3963.716880  	-0.010523 
3965.645696  	-0.011013 
3967.574512  	-0.011435 
3969.503328  	-0.011499 
3971.432144  	-0.011446 
3973.360960  	-0.011243 
3975.289776  	-0.010947 
3977.218592  	-0.010946 
3979.147408  	-0.011207 
3981.076224  	-0.011294 
3983.005040  	-0.011071 
3984.933856  	-0.011048 
3986.862672  	-0.011208 
3988.791488  	-0.011447 
3990.720304  	-0.011473 
3992.649120  	-0.011330 
3994.577936  	-0.011156 
3996.506752  	-0.011224 
3998.435568  	-0.011290 
4000.364384  	-0.011413 