##TITLE=No Description
##DATA TYPE=INFRARED SPECTRUM
##XUNITS=1/CM
##YUNITS=Abs
399.264912  	0.578739 
401.193728  	0.574238 
403.122544  	0.580844 
405.051360  	0.578370 
406.980176  	0.572883 
408.908992  	0.561661 
410.837808  	0.574316 
412.766624  	0.580128 
414.695440  	0.574507 
416.624256  	0.562294 
418.553072  	0.565890 
420.481888  	0.563552 
422.410704  	0.562822 
424.339520  	0.552289 
426.268336  	0.553210 
428.197152  	0.551139 
430.125968  	0.551831 
432.054784  	0.547172 
433.983600  	0.543272 
435.912416  	0.531375 
437.841232  	0.529055 
439.770048  	0.525244 
441.698864  	0.528640 
443.627680  	0.530689 
445.556496  	0.527625 
447.485312  	0.521550 
449.414128  	0.523797 
451.342944  	0.520070 
453.271760  	0.519126 
455.200576  	0.514793 
457.129392  	0.521890 
459.058208  	0.524846 
460.987024  	0.522717 
462.915840  	0.520855 
464.844656  	0.524109 
466.773472  	0.519086 
468.702288  	0.516750 
470.631104  	0.515185 
472.559920  	0.516530 
474.488736  	0.513210 
476.417552  	0.514087 
478.346368  	0.509836 
480.275184  	0.511126 
482.204000  	0.511391 
484.132816  	0.513266 
486.061632  	0.511373 
487.990448  	0.511229 
489.919264  	0.507059 
491.848080  	0.506902 
493.776896  	0.504878 
495.705712  	0.504202 
497.634528  	0.502018 
499.563344  	0.501618 
501.492160  	0.500134 
503.420976  	0.501678 
505.349792  	0.498942 
507.278608  	0.498763 
509.207424  	0.498627 
511.136240  	0.500249 
513.065056  	0.499282 
514.993872  	0.501643 
516.922688  	0.500672 
518.851504  	0.501401 
520.780320  	0.500210 
522.709136  	0.502231 
524.637952  	0.502390 
526.566768  	0.500616 
528.495584  	0.496941 
530.424400  	0.496772 
532.353216  	0.492889 
534.282032  	0.486817 
536.210848  	0.480069 
538.139664  	0.477483 
540.068480  	0.473904 
541.997296  	0.471051 
543.926112  	0.466788 
545.854928  	0.463075 
547.783744  	0.458910 
549.712560  	0.455169 
551.641376  	0.451108 
553.570192  	0.448518 
555.499008  	0.445905 
557.427824  	0.443893 
559.356640  	0.439763 
561.285456  	0.437326 
563.214272  	0.434380 
565.143088  	0.430793 
567.071904  	0.426695 
569.000720  	0.422633 
570.929536  	0.419535 
572.858352  	0.417802 
574.787168  	0.414651 
576.715984  	0.411502 
578.644800  	0.407956 
580.573616  	0.405082 
582.502432  	0.399974 
584.431248  	0.396474 
586.360064  	0.393897 
588.288880  	0.392309 
590.217696  	0.389513 
592.146512  	0.386964 
594.075328  	0.384684 
596.004144  	0.383156 
597.932960  	0.380838 
599.861776  	0.379081 
601.790592  	0.377751 
603.719408  	0.376401 
605.648224  	0.374789 
607.577040  	0.373762 
609.505856  	0.371774 
611.434672  	0.369901 
613.363488  	0.367747 
615.292304  	0.366248 
617.221120  	0.364539 
619.149936  	0.363205 
621.078752  	0.361018 
623.007568  	0.359560 
624.936384  	0.358596 
626.865200  	0.357746 
628.794016  	0.356143 
630.722832  	0.355402 
632.651648  	0.354496 
634.580464  	0.354096 
636.509280  	0.353664 
638.438096  	0.353619 
640.366912  	0.352371 
642.295728  	0.351052 
644.224544  	0.348710 
646.153360  	0.345947 
648.082176  	0.342032 
650.010992  	0.338332 
651.939808  	0.334805 
653.868624  	0.331930 
655.797440  	0.328318 
657.726256  	0.324488 
659.655072  	0.320711 
661.583888  	0.317177 
663.512704  	0.313049 
665.441520  	0.310360 
667.370336  	0.304835 
669.299152  	0.298611 
671.227968  	0.297310 
673.156784  	0.294919 
675.085600  	0.292568 
677.014416  	0.290183 
678.943232  	0.287741 
680.872048  	0.286144 
682.800864  	0.284312 
684.729680  	0.282685 
686.658496  	0.281232 
688.587312  	0.279737 
690.516128  	0.277584 
692.444944  	0.275838 
694.373760  	0.274545 
696.302576  	0.272862 
698.231392  	0.270592 
700.160208  	0.268553 
702.089024  	0.266500 
704.017840  	0.263943 
705.946656  	0.261321 
707.875472  	0.259210 
709.804288  	0.257348 
711.733104  	0.255582 
713.661920  	0.253601 
715.590736  	0.251974 
717.519552  	0.251014 
719.448368  	0.250953 
721.377184  	0.251048 
723.306000  	0.251581 
725.234816  	0.251567 
727.163632  	0.250564 
729.092448  	0.248593 
731.021264  	0.245873 
732.950080  	0.242456 
734.878896  	0.239686 
736.807712  	0.237069 
738.736528  	0.234489 
740.665344  	0.232383 
742.594160  	0.230779 
744.522976  	0.229246 
746.451792  	0.227555 
748.380608  	0.225875 
750.309424  	0.224422 
752.238240  	0.223305 
754.167056  	0.222698 
756.095872  	0.221572 
758.024688  	0.220390 
759.953504  	0.219712 
761.882320  	0.220270 
763.811136  	0.220494 
765.739952  	0.219292 
767.668768  	0.216705 
769.597584  	0.214076 
771.526400  	0.212729 
773.455216  	0.213705 
775.384032  	0.216630 
777.312848  	0.220618 
779.241664  	0.224041 
781.170480  	0.224358 
783.099296  	0.221063 
785.028112  	0.216023 
786.956928  	0.210576 
788.885744  	0.206313 
790.814560  	0.202924 
792.743376  	0.200248 
794.672192  	0.198742 
796.601008  	0.198002 
798.529824  	0.195519 
800.458640  	0.191229 
802.387456  	0.187792 
804.316272  	0.185645 
806.245088  	0.184018 
808.173904  	0.182844 
810.102720  	0.182326 
812.031536  	0.182265 
813.960352  	0.182450 
815.889168  	0.182456 
817.817984  	0.182356 
819.746800  	0.182523 
821.675616  	0.182377 
823.604432  	0.181938 
825.533248  	0.181415 
827.462064  	0.180998 
829.390880  	0.180135 
831.319696  	0.178903 
833.248512  	0.177386 
835.177328  	0.175160 
837.106144  	0.172451 
839.034960  	0.169516 
840.963776  	0.166374 
842.892592  	0.163024 
844.821408  	0.159591 
846.750224  	0.156683 
848.679040  	0.154090 
850.607856  	0.152029 
852.536672  	0.150372 
854.465488  	0.148783 
856.394304  	0.147435 
858.323120  	0.145845 
860.251936  	0.143828 
862.180752  	0.141764 
864.109568  	0.139379 
866.038384  	0.137025 
867.967200  	0.135174 
869.896016  	0.133344 
871.824832  	0.132169 
873.753648  	0.131926 
875.682464  	0.132319 
877.611280  	0.132588 
879.540096  	0.133284 
881.468912  	0.134967 
883.397728  	0.136198 
885.326544  	0.137114 
887.255360  	0.137362 
889.184176  	0.136379 
891.112992  	0.134392 
893.041808  	0.132857 
894.970624  	0.130776 
896.899440  	0.127861 
898.828256  	0.124084 
900.757072  	0.120395 
902.685888  	0.117441 
904.614704  	0.115720 
906.543520  	0.115884 
908.472336  	0.117158 
910.401152  	0.119203 
912.329968  	0.121575 
914.258784  	0.124274 
916.187600  	0.126639 
918.116416  	0.128619 
920.045232  	0.130030 
921.974048  	0.130622 
923.902864  	0.130899 
925.831680  	0.130657 
927.760496  	0.130547 
929.689312  	0.130661 
931.618128  	0.130939 
933.546944  	0.131160 
935.475760  	0.131225 
937.404576  	0.131016 
939.333392  	0.130553 
941.262208  	0.130547 
943.191024  	0.131645 
945.119840  	0.134596 
947.048656  	0.139436 
948.977472  	0.145883 
950.906288  	0.153814 
952.835104  	0.162974 
954.763920  	0.172752 
956.692736  	0.181981 
958.621552  	0.190059 
960.550368  	0.195646 
962.479184  	0.198547 
964.408000  	0.198300 
966.336816  	0.194317 
968.265632  	0.186859 
970.194448  	0.176973 
972.123264  	0.165499 
974.052080  	0.153421 
975.980896  	0.141483 
977.909712  	0.130278 
979.838528  	0.120220 
981.767344  	0.111882 
983.696160  	0.105408 
985.624976  	0.101389 
987.553792  	0.099638 
989.482608  	0.100191 
991.411424  	0.102923 
993.340240  	0.107023 
995.269056  	0.112204 
997.197872  	0.117904 
999.126688  	0.123643 
1001.055504  	0.129435 
1002.984320  	0.135339 
1004.913136  	0.141148 
1006.841952  	0.146799 
1008.770768  	0.151580 
1010.699584  	0.154947 
1012.628400  	0.157003 
1014.557216  	0.157916 
1016.486032  	0.158071 
1018.414848  	0.157687 
1020.343664  	0.157461 
1022.272480  	0.156923 
1024.201296  	0.155590 
1026.130112  	0.152340 
1028.058928  	0.151007 
1029.987744  	0.153556 
1031.916560  	0.155011 
1033.845376  	0.155890 
1035.774192  	0.156731 
1037.703008  	0.158939 
1039.631824  	0.164353 
1041.560640  	0.172010 
1043.489456  	0.182159 
1045.418272  	0.194667 
1047.347088  	0.209121 
1049.275904  	0.222677 
1051.204720  	0.233440 
1053.133536  	0.240528 
1055.062352  	0.244129 
1056.991168  	0.244581 
1058.919984  	0.246079 
1060.848800  	0.247440 
1062.777616  	0.245892 
1064.706432  	0.240809 
1066.635248  	0.236549 
1068.564064  	0.235429 
1070.492880  	0.231342 
1072.421696  	0.224499 
1074.350512  	0.219284 
1076.279328  	0.217421 
1078.208144  	0.219581 
1080.136960  	0.224430 
1082.065776  	0.230396 
1083.994592  	0.234676 
1085.923408  	0.236209 
1087.852224  	0.234704 
1089.781040  	0.231510 
1091.709856  	0.226967 
1093.638672  	0.220008 
1095.567488  	0.210150 
1097.496304  	0.199088 
1099.425120  	0.187508 
1101.353936  	0.175755 
1103.282752  	0.164435 
1105.211568  	0.153494 
1107.140384  	0.142904 
1109.069200  	0.132898 
1110.998016  	0.123627 
1112.926832  	0.115174 
1114.855648  	0.107397 
1116.784464  	0.100065 
1118.713280  	0.093192 
1120.642096  	0.086754 
1122.570912  	0.080721 
1124.499728  	0.075085 
1126.428544  	0.070178 
1128.357360  	0.065637 
1130.286176  	0.062036 
1132.214992  	0.058961 
1134.143808  	0.056419 
1136.072624  	0.054156 
1138.001440  	0.052262 
1139.930256  	0.050083 
1141.859072  	0.047950 
1143.787888  	0.045785 
1145.716704  	0.043806 
1147.645520  	0.041795 
1149.574336  	0.040158 
1151.503152  	0.038957 
1153.431968  	0.038503 
1155.360784  	0.038507 
1157.289600  	0.039129 
1159.218416  	0.040355 
1161.147232  	0.042158 
1163.076048  	0.043901 
1165.004864  	0.045856 
1166.933680  	0.047894 
1168.862496  	0.050109 
1170.791312  	0.052052 
1172.720128  	0.054432 
1174.648944  	0.056833 
1176.577760  	0.059238 
1178.506576  	0.061553 
1180.435392  	0.063898 
1182.364208  	0.066204 
1184.293024  	0.068966 
1186.221840  	0.071867 
1188.150656  	0.075195 
1190.079472  	0.079121 
1192.008288  	0.083761 
1193.937104  	0.089373 
1195.865920  	0.096065 
1197.794736  	0.103504 
1199.723552  	0.111669 
1201.652368  	0.119689 
1203.581184  	0.127920 
1205.510000  	0.136249 
1207.438816  	0.144295 
1209.367632  	0.151628 
1211.296448  	0.157885 
1213.225264  	0.163200 
1215.154080  	0.167359 
1217.082896  	0.170634 
1219.011712  	0.172729 
1220.940528  	0.174248 
1222.869344  	0.175163 
1224.798160  	0.175417 
1226.726976  	0.175099 
1228.655792  	0.174240 
1230.584608  	0.172973 
1232.513424  	0.171324 
1234.442240  	0.168976 
1236.371056  	0.165817 
1238.299872  	0.161650 
1240.228688  	0.155281 
1242.157504  	0.148776 
1244.086320  	0.143399 
1246.015136  	0.136587 
1247.943952  	0.129086 
1249.872768  	0.121665 
1251.801584  	0.115088 
1253.730400  	0.108529 
1255.659216  	0.102213 
1257.588032  	0.096224 
1259.516848  	0.090486 
1261.445664  	0.085223 
1263.374480  	0.080371 
1265.303296  	0.076193 
1267.232112  	0.072885 
1269.160928  	0.070453 
1271.089744  	0.068638 
1273.018560  	0.067727 
1274.947376  	0.067460 
1276.876192  	0.067573 
1278.805008  	0.067533 
1280.733824  	0.066608 
1282.662640  	0.064846 
1284.591456  	0.062712 
1286.520272  	0.060662 
1288.449088  	0.059282 
1290.377904  	0.058657 
1292.306720  	0.058822 
1294.235536  	0.058967 
1296.164352  	0.058108 
1298.093168  	0.056050 
1300.021984  	0.053445 
1301.950800  	0.050587 
1303.879616  	0.047909 
1305.808432  	0.044946 
1307.737248  	0.042011 
1309.666064  	0.039323 
1311.594880  	0.037128 
1313.523696  	0.035267 
1315.452512  	0.034229 
1317.381328  	0.033645 
1319.310144  	0.033448 
1321.238960  	0.033600 
1323.167776  	0.034384 
1325.096592  	0.035223 
1327.025408  	0.035739 
1328.954224  	0.035663 
1330.883040  	0.035260 
1332.811856  	0.034532 
1334.740672  	0.033980 
1336.669488  	0.033433 
1338.598304  	0.032874 
1340.527120  	0.031780 
1342.455936  	0.031219 
1344.384752  	0.031074 
1346.313568  	0.031283 
1348.242384  	0.031848 
1350.171200  	0.032904 
1352.100016  	0.034258 
1354.028832  	0.035896 
1355.957648  	0.037340 
1357.886464  	0.039162 
1359.815280  	0.041137 
1361.744096  	0.042742 
1363.672912  	0.043623 
1365.601728  	0.045101 
1367.530544  	0.046314 
1369.459360  	0.046481 
1371.388176  	0.046426 
1373.316992  	0.045290 
1375.245808  	0.042322 
1377.174624  	0.040011 
1379.103440  	0.037301 
1381.032256  	0.034820 
1382.961072  	0.032976 
1384.889888  	0.032416 
1386.818704  	0.031383 
1388.747520  	0.029593 
1390.676336  	0.027903 
1392.605152  	0.025217 
1394.533968  	0.023160 
1396.462784  	0.025438 
1398.391600  	0.026629 
1400.320416  	0.026038 
1402.249232  	0.026550 
1404.178048  	0.026927 
1406.106864  	0.027158 
1408.035680  	0.028911 
1409.964496  	0.031104 
1411.893312  	0.033604 
1413.822128  	0.036502 
1415.750944  	0.039793 
1417.679760  	0.042005 
1419.608576  	0.041666 
1421.537392  	0.042291 
1423.466208  	0.042556 
1425.395024  	0.040916 
1427.323840  	0.040158 
1429.252656  	0.038175 
1431.181472  	0.036280 
1433.110288  	0.036212 
1435.039104  	0.037255 
1436.967920  	0.036021 
1438.896736  	0.036589 
1440.825552  	0.037877 
1442.754368  	0.038502 
1444.683184  	0.038778 
1446.612000  	0.038787 
1448.540816  	0.037493 
1450.469632  	0.037864 
1452.398448  	0.038823 
1454.327264  	0.040345 
1456.256080  	0.040303 
1458.184896  	0.037159 
1460.113712  	0.038026 
1462.042528  	0.039998 
1463.971344  	0.040183 
1465.900160  	0.039811 
1467.828976  	0.042044 
1469.757792  	0.045523 
1471.686608  	0.048458 
1473.615424  	0.052238 
1475.544240  	0.057339 
1477.473056  	0.062274 
1479.401872  	0.066237 
1481.330688  	0.069068 
1483.259504  	0.071017 
1485.188320  	0.072753 
1487.117136  	0.073048 
1489.045952  	0.072129 
1490.974768  	0.068870 
1492.903584  	0.067657 
1494.832400  	0.065697 
1496.761216  	0.059884 
1498.690032  	0.054094 
1500.618848  	0.050232 
1502.547664  	0.047741 
1504.476480  	0.046189 
1506.405296  	0.039974 
1508.334112  	0.033779 
1510.262928  	0.034454 
1512.191744  	0.033800 
1514.120560  	0.033610 
1516.049376  	0.033416 
1517.978192  	0.032974 
1519.907008  	0.035034 
1521.835824  	0.035142 
1523.764640  	0.038300 
1525.693456  	0.041508 
1527.622272  	0.043083 
1529.551088  	0.044176 
1531.479904  	0.044633 
1533.408720  	0.041082 
1535.337536  	0.038087 
1537.266352  	0.038546 
1539.195168  	0.034470 
1541.123984  	0.026888 
1543.052800  	0.026554 
1544.981616  	0.025605 
1546.910432  	0.025587 
1548.839248  	0.026142 
1550.768064  	0.025801 
1552.696880  	0.026719 
1554.625696  	0.027602 
1556.554512  	0.029558 
1558.483328  	0.029053 
1560.412144  	0.028201 
1562.340960  	0.034484 
1564.269776  	0.038425 
1566.198592  	0.042913 
1568.127408  	0.047004 
1570.056224  	0.050870 
1571.985040  	0.056433 
1573.913856  	0.061547 
1575.842672  	0.062798 
1577.771488  	0.063882 
1579.700304  	0.065470 
1581.629120  	0.065338 
1583.557936  	0.064772 
1585.486752  	0.065438 
1587.415568  	0.067378 
1589.344384  	0.071075 
1591.273200  	0.076069 
1593.202016  	0.082254 
1595.130832  	0.088687 
1597.059648  	0.095567 
1598.988464  	0.101611 
1600.917280  	0.106888 
1602.846096  	0.110323 
1604.774912  	0.112640 
1606.703728  	0.113058 
1608.632544  	0.112421 
1610.561360  	0.110635 
1612.490176  	0.109593 
1614.418992  	0.108695 
1616.347808  	0.106665 
1618.276624  	0.106343 
1620.205440  	0.110149 
1622.134256  	0.113080 
1624.063072  	0.117630 
1625.991888  	0.123532 
1627.920704  	0.130529 
1629.849520  	0.138801 
1631.778336  	0.147495 
1633.707152  	0.154346 
1635.635968  	0.161619 
1637.564784  	0.169611 
1639.493600  	0.176538 
1641.422416  	0.181585 
1643.351232  	0.186160 
1645.280048  	0.187773 
1647.208864  	0.187855 
1649.137680  	0.189285 
1651.066496  	0.190841 
1652.995312  	0.185025 
1654.924128  	0.182773 
1656.852944  	0.183395 
1658.781760  	0.182101 
1660.710576  	0.179322 
1662.639392  	0.174839 
1664.568208  	0.171027 
1666.497024  	0.169259 
1668.425840  	0.164919 
1670.354656  	0.158742 
1672.283472  	0.155810 
1674.212288  	0.153281 
1676.141104  	0.148276 
1678.069920  	0.147475 
1679.998736  	0.146663 
1681.927552  	0.146463 
1683.856368  	0.142659 
1685.785184  	0.140528 
1687.714000  	0.142083 
1689.642816  	0.141757 
1691.571632  	0.140915 
1693.500448  	0.140853 
1695.429264  	0.137655 
1697.358080  	0.135077 
1699.286896  	0.133429 
1701.215712  	0.127224 
1703.144528  	0.127060 
1705.073344  	0.123732 
1707.002160  	0.118096 
1708.930976  	0.114335 
1710.859792  	0.109185 
1712.788608  	0.103471 
1714.717424  	0.096339 
1716.646240  	0.086640 
1718.575056  	0.073365 
1720.503872  	0.066373 
1722.432688  	0.060485 
1724.361504  	0.051985 
1726.290320  	0.045410 
1728.219136  	0.039855 
1730.147952  	0.034592 
1732.076768  	0.030972 
1734.005584  	0.024217 
1735.934400  	0.018848 
1737.863216  	0.019845 
1739.792032  	0.016702 
1741.720848  	0.015043 
1743.649664  	0.013914 
1745.578480  	0.013378 
1747.507296  	0.012410 
1749.436112  	0.011127 
1751.364928  	0.009010 
1753.293744  	0.008866 
1755.222560  	0.009435 
1757.151376  	0.008375 
1759.080192  	0.008108 
1761.009008  	0.007867 
1762.937824  	0.006027 
1764.866640  	0.006727 
1766.795456  	0.007202 
1768.724272  	0.006816 
1770.653088  	0.006350 
1772.581904  	0.003792 
1774.510720  	0.003510 
1776.439536  	0.004668 
1778.368352  	0.005016 
1780.297168  	0.004724 
1782.225984  	0.004177 
1784.154800  	0.004468 
1786.083616  	0.003773 
1788.012432  	0.004329 
1789.941248  	0.004818 
1791.870064  	0.003651 
1793.798880  	0.002050 
1795.727696  	0.003213 
1797.656512  	0.003343 
1799.585328  	0.003402 
1801.514144  	0.002715 
1803.442960  	0.002873 
1805.371776  	0.002835 
1807.300592  	0.003150 
1809.229408  	0.002871 
1811.158224  	0.002361 
1813.087040  	0.001946 
1815.015856  	0.002642 
1816.944672  	0.002536 
1818.873488  	0.002595 
1820.802304  	0.002503 
1822.731120  	0.003134 
1824.659936  	0.002350 
1826.588752  	0.001936 
1828.517568  	0.002154 
1830.446384  	0.001209 
1832.375200  	0.001247 
1834.304016  	0.002095 
1836.232832  	0.002149 
1838.161648  	0.002149 
1840.090464  	0.002027 
1842.019280  	0.002983 
1843.948096  	0.001659 
1845.876912  	0.000972 
1847.805728  	0.001541 
1849.734544  	0.001739 
1851.663360  	0.001787 
1853.592176  	0.001963 
1855.520992  	0.001791 
1857.449808  	0.001848 
1859.378624  	0.001565 
1861.307440  	0.001495 
1863.236256  	0.001687 
1865.165072  	0.002393 
1867.093888  	0.002378 
1869.022704  	0.001419 
1870.951520  	0.000838 
1872.880336  	0.001619 
1874.809152  	0.001493 
1876.737968  	0.001547 
1878.666784  	0.001215 
1880.595600  	0.001617 
1882.524416  	0.001488 
1884.453232  	0.001461 
1886.382048  	0.001258 
1888.310864  	0.001601 
1890.239680  	0.000814 
1892.168496  	0.001105 
1894.097312  	0.001211 
1896.026128  	0.001221 
1897.954944  	0.000957 
1899.883760  	0.001216 
1901.812576  	0.000860 
1903.741392  	0.000970 
1905.670208  	0.001161 
1907.599024  	0.001254 
1909.527840  	0.000633 
1911.456656  	0.000944 
1913.385472  	0.001137 
1915.314288  	0.001971 
1917.243104  	0.001535 
1919.171920  	0.000901 
1921.100736  	0.001194 
1923.029552  	0.001240 
1924.958368  	0.000791 
1926.887184  	0.001216 
1928.816000  	0.000973 
1930.744816  	0.001269 
1932.673632  	0.001114 
1934.602448  	0.001168 
1936.531264  	0.001312 
1938.460080  	0.001848 
1940.388896  	0.001749 
1942.317712  	0.001459 
1944.246528  	0.001019 
1946.175344  	0.001949 
1948.104160  	0.001490 
1950.032976  	0.001699 
1951.961792  	0.001138 
1953.890608  	0.001608 
1955.819424  	0.001132 
1957.748240  	0.001183 
1959.677056  	0.000844 
1961.605872  	0.001546 
1963.534688  	0.001577 
1965.463504  	0.002190 
1967.392320  	0.000821 
1969.321136  	0.001007 
1971.249952  	0.001202 
1973.178768  	0.002415 
1975.107584  	0.001695 
1977.036400  	0.002591 
1978.965216  	0.004274 
1980.894032  	0.004101 
1982.822848  	0.002426 
1984.751664  	0.002845 
1986.680480  	0.001596 
1988.609296  	0.001378 
1990.538112  	0.001042 
1992.466928  	0.001668 
1994.395744  	0.001435 
1996.324560  	0.001318 
1998.253376  	0.000659 
2000.182192  	0.000855 
2002.111008  	0.000624 
2004.039824  	0.001719 
2005.968640  	0.001711 
2007.897456  	0.002263 
2009.826272  	0.001550 
2011.755088  	0.001937 
2013.683904  	0.001181 
2015.612720  	0.000810 
2017.541536  	0.000481 
2019.470352  	0.002157 
2021.399168  	0.000844 
2023.327984  	0.000630 
2025.256800  	0.001890 
2027.185616  	0.003258 
2029.114432  	0.002692 
2031.043248  	0.003229 
2032.972064  	0.002794 
2034.900880  	0.003272 
2036.829696  	0.001983 
2038.758512  	0.002347 
2040.687328  	0.001941 
2042.616144  	0.001763 
2044.544960  	0.001417 
2046.473776  	0.001819 
2048.402592  	0.001382 
2050.331408  	0.001367 
2052.260224  	0.000795 
2054.189040  	0.000897 
2056.117856  	0.000748 
2058.046672  	0.001578 
2059.975488  	0.001240 
2061.904304  	0.000681 
2063.833120  	0.000295 
2065.761936  	0.000400 
2067.690752  	0.000318 
2069.619568  	0.001124 
2071.548384  	0.000834 
2073.477200  	0.000323 
2075.406016  	0.000379 
2077.334832  	0.001034 
2079.263648  	0.000897 
2081.192464  	0.000916 
2083.121280  	0.001073 
2085.050096  	0.001053 
2086.978912  	0.000857 
2088.907728  	0.000948 
2090.836544  	0.000725 
2092.765360  	0.001006 
2094.694176  	0.001125 
2096.622992  	0.001444 
2098.551808  	0.001186 
2100.480624  	0.001182 
2102.409440  	0.001057 
2104.338256  	0.001029 
2106.267072  	0.001386 
2108.195888  	0.001709 
2110.124704  	0.001214 
2112.053520  	0.001096 
2113.982336  	0.000581 
2115.911152  	0.000424 
2117.839968  	0.000749 
2119.768784  	0.001225 
2121.697600  	0.000940 
2123.626416  	0.000929 
2125.555232  	0.000917 
2127.484048  	0.001346 
2129.412864  	0.000701 
2131.341680  	0.000318 
2133.270496  	0.000659 
2135.199312  	0.001214 
2137.128128  	0.001100 
2139.056944  	0.001830 
2140.985760  	0.001817 
2142.914576  	0.001204 
2144.843392  	0.000747 
2146.772208  	0.001378 
2148.701024  	0.001270 
2150.629840  	0.001933 
2152.558656  	0.001965 
2154.487472  	0.002005 
2156.416288  	0.001236 
2158.345104  	0.001862 
2160.273920  	0.004109 
2162.202736  	0.005097 
2164.131552  	0.003764 
2166.060368  	0.003254 
2167.989184  	0.003589 
2169.918000  	0.004572 
2171.846816  	0.003419 
2173.775632  	0.002824 
2175.704448  	0.003100 
2177.633264  	0.003251 
2179.562080  	0.002665 
2181.490896  	0.002933 
2183.419712  	0.002300 
2185.348528  	0.002417 
2187.277344  	0.002391 
2189.206160  	0.001784 
2191.134976  	0.001340 
2193.063792  	0.001826 
2194.992608  	0.001801 
2196.921424  	0.001991 
2198.850240  	0.001784 
2200.779056  	0.001826 
2202.707872  	0.001781 
2204.636688  	0.001744 
2206.565504  	0.001599 
2208.494320  	0.002089 
2210.423136  	0.001992 
2212.351952  	0.001555 
2214.280768  	0.001112 
2216.209584  	0.001494 
2218.138400  	0.001342 
2220.067216  	0.001856 
2221.996032  	0.001835 
2223.924848  	0.001553 
2225.853664  	0.001559 
2227.782480  	0.001592 
2229.711296  	0.000884 
2231.640112  	0.000735 
2233.568928  	0.000329 
2235.497744  	0.000652 
2237.426560  	0.000658 
2239.355376  	0.000721 
2241.284192  	0.000656 
2243.213008  	0.000900 
2245.141824  	0.000337 
2247.070640  	0.000198 
2248.999456  	0.000225 
2250.928272  	0.000096 
2252.857088  	-0.000170 
2254.785904  	-0.000114 
2256.714720  	-0.000468 
2258.643536  	-0.000503 
2260.572352  	-0.000514 
2262.501168  	-0.000384 
2264.429984  	-0.000179 
2266.358800  	-0.000023 
2268.287616  	-0.000140 
2270.216432  	0.000184 
2272.145248  	0.000139 
2274.074064  	-0.000105 
2276.002880  	-0.000121 
2277.931696  	0.000189 
2279.860512  	0.000021 
2281.789328  	-0.000074 
2283.718144  	-0.000202 
2285.646960  	-0.000004 
2287.575776  	0.000096 
2289.504592  	-0.000159 
2291.433408  	-0.000372 
2293.362224  	-0.000310 
2295.291040  	-0.000423 
2297.219856  	-0.000085 
2299.148672  	-0.000173 
2301.077488  	-0.000253 
2303.006304  	-0.000285 
2304.935120  	-0.000154 
2306.863936  	-0.000258 
2308.792752  	-0.000503 
2310.721568  	-0.000867 
2312.650384  	-0.001041 
2314.579200  	-0.001365 
2316.508016  	-0.001664 
2318.436832  	-0.002121 
2320.365648  	-0.002932 
2322.294464  	-0.003897 
2324.223280  	-0.004418 
2326.152096  	-0.005219 
2328.080912  	-0.006339 
2330.009728  	-0.007538 
2331.938544  	-0.008403 
2333.867360  	-0.008460 
2335.796176  	-0.008816 
2337.724992  	-0.009611 
2339.653808  	-0.009616 
2341.582624  	-0.010112 
2343.511440  	-0.010429 
2345.440256  	-0.010049 
2347.369072  	-0.007430 
2349.297888  	-0.004568 
2351.226704  	-0.004901 
2353.155520  	-0.007628 
2355.084336  	-0.009757 
2357.013152  	-0.011841 
2358.941968  	-0.013107 
2360.870784  	-0.014015 
2362.799600  	-0.013822 
2364.728416  	-0.013653 
2366.657232  	-0.012623 
2368.586048  	-0.010820 
2370.514864  	-0.009340 
2372.443680  	-0.008085 
2374.372496  	-0.006162 
2376.301312  	-0.004647 
2378.230128  	-0.003546 
2380.158944  	-0.002731 
2382.087760  	-0.001888 
2384.016576  	-0.001349 
2385.945392  	-0.001087 
2387.874208  	-0.001037 
2389.803024  	-0.001044 
2391.731840  	-0.001203 
2393.660656  	-0.001212 
2395.589472  	-0.001066 
2397.518288  	-0.000715 
2399.447104  	-0.000875 
2401.375920  	-0.001005 
2403.304736  	-0.001080 
2405.233552  	-0.000983 
2407.162368  	-0.001133 
2409.091184  	-0.001198 
2411.020000  	-0.001112 
2412.948816  	-0.000967 
2414.877632  	-0.000927 
2416.806448  	-0.000787 
2418.735264  	-0.001072 
2420.664080  	-0.001299 
2422.592896  	-0.001216 
2424.521712  	-0.001039 
2426.450528  	-0.001084 
2428.379344  	-0.000915 
2430.308160  	-0.000757 
2432.236976  	-0.000590 
2434.165792  	-0.000710 
2436.094608  	-0.000861 
2438.023424  	-0.000750 
2439.952240  	-0.000528 
2441.881056  	-0.000648 
2443.809872  	-0.000807 
2445.738688  	-0.000667 
2447.667504  	-0.000545 
2449.596320  	-0.000711 
2451.525136  	-0.000594 
2453.453952  	-0.000581 
2455.382768  	-0.000645 
2457.311584  	-0.000761 
2459.240400  	-0.000698 
2461.169216  	-0.000582 
2463.098032  	-0.000523 
2465.026848  	-0.000608 
2466.955664  	-0.000714 
2468.884480  	-0.000768 
2470.813296  	-0.000878 
2472.742112  	-0.000970 
2474.670928  	-0.000822 
2476.599744  	-0.000662 
2478.528560  	-0.000343 
2480.457376  	-0.000586 
2482.386192  	-0.000842 
2484.315008  	-0.000587 
2486.243824  	-0.000480 
2488.172640  	-0.000575 
2490.101456  	-0.000335 
2492.030272  	-0.000187 
2493.959088  	-0.000232 
2495.887904  	-0.000264 
2497.816720  	-0.000295 
2499.745536  	-0.000351 
2501.674352  	-0.000258 
2503.603168  	-0.000042 
2505.531984  	0.000146 
2507.460800  	0.000091 
2509.389616  	0.000085 
2511.318432  	-0.000062 
2513.247248  	0.000012 
2515.176064  	0.000111 
2517.104880  	0.000102 
2519.033696  	-0.000162 
2520.962512  	-0.000061 
2522.891328  	0.000156 
2524.820144  	0.000105 
2526.748960  	0.000064 
2528.677776  	0.000480 
2530.606592  	0.000704 
2532.535408  	0.000603 
2534.464224  	0.000425 
2536.393040  	0.000453 
2538.321856  	0.000697 
2540.250672  	0.000829 
2542.179488  	0.000791 
2544.108304  	0.000820 
2546.037120  	0.000933 
2547.965936  	0.000824 
2549.894752  	0.000697 
2551.823568  	0.000748 
2553.752384  	0.000890 
2555.681200  	0.001205 
2557.610016  	0.001225 
2559.538832  	0.001256 
2561.467648  	0.001452 
2563.396464  	0.001413 
2565.325280  	0.001372 
2567.254096  	0.001493 
2569.182912  	0.001447 
2571.111728  	0.001650 
2573.040544  	0.001779 
2574.969360  	0.001741 
2576.898176  	0.001910 
2578.826992  	0.001926 
2580.755808  	0.001842 
2582.684624  	0.001776 
2584.613440  	0.001858 
2586.542256  	0.002023 
2588.471072  	0.002003 
2590.399888  	0.002113 
2592.328704  	0.002341 
2594.257520  	0.002371 
2596.186336  	0.002342 
2598.115152  	0.002336 
2600.043968  	0.002304 
2601.972784  	0.002583 
2603.901600  	0.002757 
2605.830416  	0.002861 
2607.759232  	0.002910 
2609.688048  	0.002910 
2611.616864  	0.002918 
2613.545680  	0.003052 
2615.474496  	0.003162 
2617.403312  	0.003267 
2619.332128  	0.003292 
2621.260944  	0.003280 
2623.189760  	0.003293 
2625.118576  	0.003310 
2627.047392  	0.003370 
2628.976208  	0.003550 
2630.905024  	0.003645 
2632.833840  	0.003731 
2634.762656  	0.003913 
2636.691472  	0.003968 
2638.620288  	0.003994 
2640.549104  	0.004122 
2642.477920  	0.004200 
2644.406736  	0.004339 
2646.335552  	0.004425 
2648.264368  	0.004525 
2650.193184  	0.004592 
2652.122000  	0.004816 
2654.050816  	0.004991 
2655.979632  	0.005075 
2657.908448  	0.005152 
2659.837264  	0.005288 
2661.766080  	0.005315 
2663.694896  	0.005392 
2665.623712  	0.005401 
2667.552528  	0.005497 
2669.481344  	0.005643 
2671.410160  	0.005749 
2673.338976  	0.005875 
2675.267792  	0.006082 
2677.196608  	0.006192 
2679.125424  	0.006177 
2681.054240  	0.006282 
2682.983056  	0.006392 
2684.911872  	0.006428 
2686.840688  	0.006505 
2688.769504  	0.006571 
2690.698320  	0.006673 
2692.627136  	0.006793 
2694.555952  	0.006881 
2696.484768  	0.006868 
2698.413584  	0.006884 
2700.342400  	0.006919 
2702.271216  	0.007142 
2704.200032  	0.007444 
2706.128848  	0.007480 
2708.057664  	0.007376 
2709.986480  	0.007502 
2711.915296  	0.007679 
2713.844112  	0.007871 
2715.772928  	0.007867 
2717.701744  	0.007921 
2719.630560  	0.008180 
2721.559376  	0.008317 
2723.488192  	0.008341 
2725.417008  	0.008484 
2727.345824  	0.008650 
2729.274640  	0.008689 
2731.203456  	0.008730 
2733.132272  	0.008911 
2735.061088  	0.009009 
2736.989904  	0.009182 
2738.918720  	0.009244 
2740.847536  	0.009190 
2742.776352  	0.009096 
2744.705168  	0.009248 
2746.633984  	0.009319 
2748.562800  	0.009283 
2750.491616  	0.009385 
2752.420432  	0.009618 
2754.349248  	0.009637 
2756.278064  	0.009547 
2758.206880  	0.009447 
2760.135696  	0.009466 
2762.064512  	0.009530 
2763.993328  	0.009552 
2765.922144  	0.009510 
2767.850960  	0.009503 
2769.779776  	0.009552 
2771.708592  	0.009683 
2773.637408  	0.009646 
2775.566224  	0.009641 
2777.495040  	0.009640 
2779.423856  	0.009619 
2781.352672  	0.009547 
2783.281488  	0.009475 
2785.210304  	0.009435 
2787.139120  	0.009470 
2789.067936  	0.009505 
2790.996752  	0.009516 
2792.925568  	0.009411 
2794.854384  	0.009435 
2796.783200  	0.009379 
2798.712016  	0.009261 
2800.640832  	0.009201 
2802.569648  	0.009300 
2804.498464  	0.009398 
2806.427280  	0.009338 
2808.356096  	0.009266 
2810.284912  	0.009310 
2812.213728  	0.009361 
2814.142544  	0.009290 
2816.071360  	0.009192 
2818.000176  	0.009094 
2819.928992  	0.009000 
2821.857808  	0.008880 
2823.786624  	0.008784 
2825.715440  	0.008763 
2827.644256  	0.008673 
2829.573072  	0.008574 
2831.501888  	0.008263 
2833.430704  	0.007869 
2835.359520  	0.007536 
2837.288336  	0.007287 
2839.217152  	0.007037 
2841.145968  	0.006673 
2843.074784  	0.006245 
2845.003600  	0.005828 
2846.932416  	0.005446 
2848.861232  	0.004991 
2850.790048  	0.004489 
2852.718864  	0.004008 
2854.647680  	0.003454 
2856.576496  	0.002954 
2858.505312  	0.002444 
2860.434128  	0.001907 
2862.362944  	0.001271 
2864.291760  	0.000474 
2866.220576  	-0.000087 
2868.149392  	-0.000286 
2870.078208  	-0.000454 
2872.007024  	-0.000680 
2873.935840  	-0.000670 
2875.864656  	-0.000560 
2877.793472  	-0.000649 
2879.722288  	-0.000839 
2881.651104  	-0.001284 
2883.579920  	-0.001570 
2885.508736  	-0.001462 
2887.437552  	-0.001298 
2889.366368  	-0.001303 
2891.295184  	-0.001590 
2893.224000  	-0.001773 
2895.152816  	-0.001678 
2897.081632  	-0.001923 
2899.010448  	-0.003620 
2900.939264  	-0.005147 
2902.868080  	-0.003963 
2904.796896  	-0.002685 
2906.725712  	-0.002154 
2908.654528  	-0.001627 
2910.583344  	-0.001166 
2912.512160  	-0.000728 
2914.440976  	0.000199 
2916.369792  	0.000983 
2918.298608  	0.001451 
2920.227424  	0.001839 
2922.156240  	0.002413 
2924.085056  	0.003166 
2926.013872  	0.004005 
2927.942688  	0.004955 
2929.871504  	0.005979 
2931.800320  	0.006847 
2933.729136  	0.007485 
2935.657952  	0.007979 
2937.586768  	0.008591 
2939.515584  	0.009307 
2941.444400  	0.009542 
2943.373216  	0.009507 
2945.302032  	0.009807 
2947.230848  	0.010072 
2949.159664  	0.009774 
2951.088480  	0.009277 
2953.017296  	0.008833 
2954.946112  	0.008257 
2956.874928  	0.007529 
2958.803744  	0.006691 
2960.732560  	0.006131 
2962.661376  	0.005496 
2964.590192  	0.004573 
2966.519008  	0.003475 
2968.447824  	0.002462 
2970.376640  	0.001635 
2972.305456  	0.001173 
2974.234272  	0.001494 
2976.163088  	0.001831 
2978.091904  	0.001797 
2980.020720  	0.001758 
2981.949536  	0.002025 
2983.878352  	0.001931 
2985.807168  	0.000919 
2987.735984  	-0.000033 
2989.664800  	0.000448 
2991.593616  	0.003416 
2993.522432  	0.005252 
2995.451248  	0.005760 
2997.380064  	0.006593 
2999.308880  	0.007801 
3001.237696  	0.008986 
3003.166512  	0.010348 
3005.095328  	0.011754 
3007.024144  	0.013068 
3008.952960  	0.014431 
3010.881776  	0.015979 
3012.810592  	0.017283 
3014.739408  	0.018443 
3016.668224  	0.019583 
3018.597040  	0.020849 
3020.525856  	0.021941 
3022.454672  	0.022892 
3024.383488  	0.023871 
3026.312304  	0.024803 
3028.241120  	0.025829 
3030.169936  	0.026739 
3032.098752  	0.027418 
3034.027568  	0.028274 
3035.956384  	0.029057 
3037.885200  	0.029802 
3039.814016  	0.030364 
3041.742832  	0.030896 
3043.671648  	0.031408 
3045.600464  	0.032040 
3047.529280  	0.032571 
3049.458096  	0.033181 
3051.386912  	0.034022 
3053.315728  	0.034637 
3055.244544  	0.035046 
3057.173360  	0.035527 
3059.102176  	0.035972 
3061.030992  	0.036604 
3062.959808  	0.037365 
3064.888624  	0.038010 
3066.817440  	0.038718 
3068.746256  	0.039530 
3070.675072  	0.040137 
3072.603888  	0.040775 
3074.532704  	0.041460 
3076.461520  	0.042141 
3078.390336  	0.042827 
3080.319152  	0.043440 
3082.247968  	0.044064 
3084.176784  	0.044880 
3086.105600  	0.045725 
3088.034416  	0.046437 
3089.963232  	0.047128 
3091.892048  	0.047763 
3093.820864  	0.048276 
3095.749680  	0.048809 
3097.678496  	0.049681 
3099.607312  	0.050623 
3101.536128  	0.051402 
3103.464944  	0.052210 
3105.393760  	0.052906 
3107.322576  	0.053604 
3109.251392  	0.054333 
3111.180208  	0.054979 
3113.109024  	0.055677 
3115.037840  	0.056353 
3116.966656  	0.056906 
3118.895472  	0.057393 
3120.824288  	0.058001 
3122.753104  	0.058674 
3124.681920  	0.059189 
3126.610736  	0.059640 
3128.539552  	0.060410 
3130.468368  	0.061183 
3132.397184  	0.061560 
3134.326000  	0.062061 
3136.254816  	0.062679 
3138.183632  	0.063184 
3140.112448  	0.063666 
3142.041264  	0.064300 
3143.970080  	0.064889 
3145.898896  	0.065414 
3147.827712  	0.065928 
3149.756528  	0.066327 
3151.685344  	0.066896 
3153.614160  	0.067651 
3155.542976  	0.068330 
3157.471792  	0.069093 
3159.400608  	0.069763 
3161.329424  	0.070232 
3163.258240  	0.070580 
3165.187056  	0.071132 
3167.115872  	0.071704 
3169.044688  	0.072071 
3170.973504  	0.072509 
3172.902320  	0.073030 
3174.831136  	0.073523 
3176.759952  	0.073977 
3178.688768  	0.074248 
3180.617584  	0.074549 
3182.546400  	0.074843 
3184.475216  	0.075059 
3186.404032  	0.075073 
3188.332848  	0.075423 
3190.261664  	0.075802 
3192.190480  	0.075924 
3194.119296  	0.075923 
3196.048112  	0.075994 
3197.976928  	0.075867 
3199.905744  	0.075868 
3201.834560  	0.075975 
3203.763376  	0.075943 
3205.692192  	0.075775 
3207.621008  	0.075645 
3209.549824  	0.075658 
3211.478640  	0.075703 
3213.407456  	0.075608 
3215.336272  	0.075341 
3217.265088  	0.075330 
3219.193904  	0.075150 
3221.122720  	0.074895 
3223.051536  	0.074904 
3224.980352  	0.074860 
3226.909168  	0.074599 
3228.837984  	0.074328 
3230.766800  	0.074264 
3232.695616  	0.074300 
3234.624432  	0.074214 
3236.553248  	0.074045 
3238.482064  	0.074058 
3240.410880  	0.074042 
3242.339696  	0.074154 
3244.268512  	0.074247 
3246.197328  	0.074327 
3248.126144  	0.074603 
3250.054960  	0.074675 
3251.983776  	0.074747 
3253.912592  	0.074832 
3255.841408  	0.075074 
3257.770224  	0.075490 
3259.699040  	0.075748 
3261.627856  	0.076013 
3263.556672  	0.076169 
3265.485488  	0.076174 
3267.414304  	0.076391 
3269.343120  	0.076861 
3271.271936  	0.077071 
3273.200752  	0.077019 
3275.129568  	0.077198 
3277.058384  	0.077600 
3278.987200  	0.077711 
3280.916016  	0.077850 
3282.844832  	0.077896 
3284.773648  	0.077998 
3286.702464  	0.078460 
3288.631280  	0.078693 
3290.560096  	0.078934 
3292.488912  	0.079382 
3294.417728  	0.079546 
3296.346544  	0.079854 
3298.275360  	0.080035 
3300.204176  	0.080245 
3302.132992  	0.080508 
3304.061808  	0.080779 
3305.990624  	0.081310 
3307.919440  	0.081929 
3309.848256  	0.082235 
3311.777072  	0.082390 
3313.705888  	0.082592 
3315.634704  	0.083167 
3317.563520  	0.083536 
3319.492336  	0.083655 
3321.421152  	0.083657 
3323.349968  	0.083916 
3325.278784  	0.084193 
3327.207600  	0.084415 
3329.136416  	0.084376 
3331.065232  	0.084346 
3332.994048  	0.084453 
3334.922864  	0.084554 
3336.851680  	0.084521 
3338.780496  	0.084472 
3340.709312  	0.084431 
3342.638128  	0.084441 
3344.566944  	0.084279 
3346.495760  	0.084090 
3348.424576  	0.083826 
3350.353392  	0.083496 
3352.282208  	0.083119 
3354.211024  	0.082874 
3356.139840  	0.082635 
3358.068656  	0.082292 
3359.997472  	0.082030 
3361.926288  	0.081827 
3363.855104  	0.081640 
3365.783920  	0.081306 
3367.712736  	0.080835 
3369.641552  	0.080504 
3371.570368  	0.080241 
3373.499184  	0.079835 
3375.428000  	0.079414 
3377.356816  	0.079106 
3379.285632  	0.078923 
3381.214448  	0.078506 
3383.143264  	0.078144 
3385.072080  	0.077806 
3387.000896  	0.077320 
3388.929712  	0.076995 
3390.858528  	0.076717 
3392.787344  	0.076216 
3394.716160  	0.075774 
3396.644976  	0.075593 
3398.573792  	0.075222 
3400.502608  	0.074828 
3402.431424  	0.074505 
3404.360240  	0.074074 
3406.289056  	0.073359 
3408.217872  	0.072668 
3410.146688  	0.072340 
3412.075504  	0.072288 
3414.004320  	0.071881 
3415.933136  	0.071520 
3417.861952  	0.070955 
3419.790768  	0.070316 
3421.719584  	0.069708 
3423.648400  	0.069391 
3425.577216  	0.068972 
3427.506032  	0.068517 
3429.434848  	0.068093 
3431.363664  	0.067633 
3433.292480  	0.066954 
3435.221296  	0.066222 
3437.150112  	0.065739 
3439.078928  	0.065436 
3441.007744  	0.064883 
3442.936560  	0.064389 
3444.865376  	0.064059 
3446.794192  	0.063037 
3448.723008  	0.062028 
3450.651824  	0.061716 
3452.580640  	0.061325 
3454.509456  	0.060853 
3456.438272  	0.060238 
3458.367088  	0.059641 
3460.295904  	0.059039 
3462.224720  	0.058212 
3464.153536  	0.057594 
3466.082352  	0.057113 
3468.011168  	0.056202 
3469.939984  	0.055368 
3471.868800  	0.054722 
3473.797616  	0.053988 
3475.726432  	0.053178 
3477.655248  	0.052629 
3479.584064  	0.052162 
3481.512880  	0.051247 
3483.441696  	0.050193 
3485.370512  	0.049687 
3487.299328  	0.048840 
3489.228144  	0.048106 
3491.156960  	0.047498 
3493.085776  	0.047004 
3495.014592  	0.046243 
3496.943408  	0.045479 
3498.872224  	0.044949 
3500.801040  	0.044417 
3502.729856  	0.043330 
3504.658672  	0.042374 
3506.587488  	0.042353 
3508.516304  	0.041885 
3510.445120  	0.040765 
3512.373936  	0.040233 
3514.302752  	0.039799 
3516.231568  	0.039445 
3518.160384  	0.039027 
3520.089200  	0.038596 
3522.018016  	0.038188 
3523.946832  	0.037337 
3525.875648  	0.036608 
3527.804464  	0.035767 
3529.733280  	0.034993 
3531.662096  	0.034516 
3533.590912  	0.034267 
3535.519728  	0.033849 
3537.448544  	0.033065 
3539.377360  	0.032662 
3541.306176  	0.032394 
3543.234992  	0.032094 
3545.163808  	0.031278 
3547.092624  	0.030187 
3549.021440  	0.029773 
3550.950256  	0.029606 
3552.879072  	0.028363 
3554.807888  	0.027714 
3556.736704  	0.027504 
3558.665520  	0.027049 
3560.594336  	0.026557 
3562.523152  	0.026338 
3564.451968  	0.026358 
3566.380784  	0.024782 
3568.309600  	0.021775 
3570.238416  	0.022209 
3572.167232  	0.023017 
3574.096048  	0.022535 
3576.024864  	0.021740 
3577.953680  	0.021128 
3579.882496  	0.020250 
3581.811312  	0.019728 
3583.740128  	0.020046 
3585.668944  	0.020162 
3587.597760  	0.016985 
3589.526576  	0.015236 
3591.455392  	0.016309 
3593.384208  	0.016124 
3595.313024  	0.014681 
3597.241840  	0.013767 
3599.170656  	0.013134 
3601.099472  	0.011912 
3603.028288  	0.011602 
3604.957104  	0.012288 
3606.885920  	0.011775 
3608.814736  	0.009497 
3610.743552  	0.009412 
3612.672368  	0.008642 
3614.601184  	0.007240 
3616.530000  	0.008013 
3618.458816  	0.005662 
3620.387632  	0.002465 
3622.316448  	0.003288 
3624.245264  	0.004415 
3626.174080  	0.005523 
3628.102896  	0.002961 
3630.031712  	-0.003897 
3631.960528  	-0.001293 
3633.889344  	-0.000946 
3635.818160  	-0.001710 
3637.746976  	-0.002231 
3639.675792  	-0.002608 
3641.604608  	-0.002824 
3643.533424  	-0.002753 
3645.462240  	-0.001711 
3647.391056  	-0.003819 
3649.319872  	-0.009679 
3651.248688  	-0.013402 
3653.177504  	-0.009587 
3655.106320  	-0.008496 
3657.035136  	-0.012416 
3658.963952  	-0.012179 
3660.892768  	-0.011815 
3662.821584  	-0.012048 
3664.750400  	-0.011725 
3666.679216  	-0.010177 
3668.608032  	-0.010813 
3670.536848  	-0.016161 
3672.465664  	-0.013753 
3674.394480  	-0.012638 
3676.323296  	-0.020209 
3678.252112  	-0.016916 
3680.180928  	-0.015083 
3682.109744  	-0.014232 
3684.038560  	-0.013621 
3685.967376  	-0.012080 
3687.896192  	-0.013576 
3689.825008  	-0.017909 
3691.753824  	-0.018007 
3693.682640  	-0.015818 
3695.611456  	-0.014564 
3697.540272  	-0.013828 
3699.469088  	-0.012356 
3701.397904  	-0.013510 
3703.326720  	-0.014105 
3705.255536  	-0.012087 
3707.184352  	-0.010518 
3709.113168  	-0.010516 
3711.041984  	-0.013262 
3712.970800  	-0.015412 
3714.899616  	-0.013003 
3716.828432  	-0.010909 
3718.757248  	-0.010820 
3720.686064  	-0.011013 
3722.614880  	-0.011833 
3724.543696  	-0.011560 
3726.472512  	-0.012358 
3728.401328  	-0.011739 
3730.330144  	-0.009590 
3732.258960  	-0.010579 
3734.187776  	-0.011449 
3736.116592  	-0.014883 
3738.045408  	-0.014512 
3739.974224  	-0.011316 
3741.903040  	-0.008087 
3743.831856  	-0.010218 
3745.760672  	-0.015390 
3747.689488  	-0.010286 
3749.618304  	-0.011331 
3751.547120  	-0.016057 
3753.475936  	-0.016091 
3755.404752  	-0.012245 
3757.333568  	-0.011356 
3759.262384  	-0.012732 
3761.191200  	-0.013416 
3763.120016  	-0.010799 
3765.048832  	-0.011197 
3766.977648  	-0.011395 
3768.906464  	-0.011386 
3770.835280  	-0.013661 
3772.764096  	-0.012469 
3774.692912  	-0.011176 
3776.621728  	-0.010235 
3778.550544  	-0.011032 
3780.479360  	-0.013431 
3782.408176  	-0.011662 
3784.336992  	-0.011665 
3786.265808  	-0.012336 
3788.194624  	-0.011900 
3790.123440  	-0.011647 
3792.052256  	-0.011468 
3793.981072  	-0.010391 
3795.909888  	-0.011246 
3797.838704  	-0.011606 
3799.767520  	-0.009835 
3801.696336  	-0.014826 
3803.625152  	-0.014394 
3805.553968  	-0.011355 
3807.482784  	-0.014495 
3809.411600  	-0.013235 
3811.340416  	-0.011199 
3813.269232  	-0.009414 
3815.198048  	-0.010950 
3817.126864  	-0.014044 
3819.055680  	-0.010659 
3820.984496  	-0.014314 
3822.913312  	-0.016073 
3824.842128  	-0.012097 
3826.770944  	-0.012526 
3828.699760  	-0.011764 
3830.628576  	-0.010965 
3832.557392  	-0.011871 
3834.486208  	-0.011074 
3836.415024  	-0.011192 
3838.343840  	-0.013931 
3840.272656  	-0.014716 
3842.201472  	-0.013269 
3844.130288  	-0.013522 
3846.059104  	-0.012445 
3847.987920  	-0.010347 
3849.916736  	-0.008503 
3851.845552  	-0.008320 
3853.774368  	-0.017843 
3855.703184  	-0.018015 
3857.632000  	-0.013924 
3859.560816  	-0.011288 
3861.489632  	-0.010600 
3863.418448  	-0.011626 
3865.347264  	-0.013466 
3867.276080  	-0.010935 
3869.204896  	-0.011465 
3871.133712  	-0.014659 
3873.062528  	-0.012615 
3874.991344  	-0.013999 
3876.920160  	-0.011567 
3878.848976  	-0.009852 
3880.777792  	-0.012554 
3882.706608  	-0.011781 
3884.635424  	-0.011049 
3886.564240  	-0.014318 
3888.493056  	-0.011616 
3890.421872  	-0.011134 
3892.350688  	-0.014056 
3894.279504  	-0.012953 
3896.208320  	-0.010557 
3898.137136  	-0.009852 
3900.065952  	-0.011198 
3901.994768  	-0.011734 
3903.923584  	-0.013607 
3905.852400  	-0.014811 
3907.781216  	-0.013179 
3909.710032  	-0.012025 
3911.638848  	-0.011795 
3913.567664  	-0.011214 
3915.496480  	-0.010812 
3917.425296  	-0.011991 
3919.354112  	-0.012551 
3921.282928  	-0.012196 
3923.211744  	-0.011412 
3925.140560  	-0.012293 
3927.069376  	-0.011863 
3928.998192  	-0.011038 
3930.927008  	-0.011428 
3932.855824  	-0.012450 
3934.784640  	-0.012352 
3936.713456  	-0.011704 
3938.642272  	-0.011528 
3940.571088  	-0.010978 
3942.499904  	-0.011700 
3944.428720  	-0.012190 
3946.357536  	-0.011213 
3948.286352  	-0.011445 
3950.215168  	-0.012107 
3952.143984  	-0.012112 
3954.072800  	-0.011910 
3956.001616  	-0.011853 
3957.930432  	-0.011864 
3959.859248  	-0.011784 
3961.788064  	-0.012093 
3963.716880  	-0.012308 
3965.645696  	-0.012012 
3967.574512  	-0.011879 
3969.503328  	-0.011953 
3971.432144  	-0.012103 
3973.360960  	-0.012135 
3975.289776  	-0.012319 
3977.218592  	-0.012319 
3979.147408  	-0.012301 
3981.076224  	-0.012163 
3983.005040  	-0.011998 
3984.933856  	-0.011939 
3986.862672  	-0.011956 
3988.791488  	-0.011948 
3990.720304  	-0.011987 
3992.649120  	-0.012025 
3994.577936  	-0.012217 
3996.506752  	-0.012301 
3998.435568  	-0.012237 
4000.364384  	-0.012045 