##TITLE=No Description
##DATA TYPE=INFRARED SPECTRUM
##XUNITS=1/CM
##YUNITS=Abs
399.264912  	0.613784 
401.193728  	0.604946 
403.122544  	0.590226 
405.051360  	0.576640 
406.980176  	0.570052 
408.908992  	0.563587 
410.837808  	0.564093 
412.766624  	0.554145 
414.695440  	0.551745 
416.624256  	0.550435 
418.553072  	0.552288 
420.481888  	0.538310 
422.410704  	0.542004 
424.339520  	0.538115 
426.268336  	0.535058 
428.197152  	0.523134 
430.125968  	0.526562 
432.054784  	0.522970 
433.983600  	0.519896 
435.912416  	0.517380 
437.841232  	0.516226 
439.770048  	0.511862 
441.698864  	0.515323 
443.627680  	0.513379 
445.556496  	0.510116 
447.485312  	0.506802 
449.414128  	0.509681 
451.342944  	0.510652 
453.271760  	0.509419 
455.200576  	0.503932 
457.129392  	0.507394 
459.058208  	0.508423 
460.987024  	0.509565 
462.915840  	0.509739 
464.844656  	0.511210 
466.773472  	0.508219 
468.702288  	0.507759 
470.631104  	0.506975 
472.559920  	0.503878 
474.488736  	0.499218 
476.417552  	0.500918 
478.346368  	0.499338 
480.275184  	0.502811 
482.204000  	0.503213 
484.132816  	0.503627 
486.061632  	0.499439 
487.990448  	0.500602 
489.919264  	0.499447 
491.848080  	0.501008 
493.776896  	0.499547 
495.705712  	0.495745 
497.634528  	0.492813 
499.563344  	0.494880 
501.492160  	0.491961 
503.420976  	0.491520 
505.349792  	0.489968 
507.278608  	0.489423 
509.207424  	0.489448 
511.136240  	0.491264 
513.065056  	0.492963 
514.993872  	0.496355 
516.922688  	0.495349 
518.851504  	0.496877 
520.780320  	0.495698 
522.709136  	0.494134 
524.637952  	0.492964 
526.566768  	0.491724 
528.495584  	0.488769 
530.424400  	0.488317 
532.353216  	0.486003 
534.282032  	0.483071 
536.210848  	0.475739 
538.139664  	0.470473 
540.068480  	0.465479 
541.997296  	0.463415 
543.926112  	0.459929 
545.854928  	0.455332 
547.783744  	0.451250 
549.712560  	0.449479 
551.641376  	0.445911 
553.570192  	0.442409 
555.499008  	0.438062 
557.427824  	0.435243 
559.356640  	0.431625 
561.285456  	0.427887 
563.214272  	0.423064 
565.143088  	0.419963 
567.071904  	0.416876 
569.000720  	0.413598 
570.929536  	0.409807 
572.858352  	0.407914 
574.787168  	0.405294 
576.715984  	0.403703 
578.644800  	0.400438 
580.573616  	0.395594 
582.502432  	0.390458 
584.431248  	0.388135 
586.360064  	0.384586 
588.288880  	0.381610 
590.217696  	0.378918 
592.146512  	0.376941 
594.075328  	0.374822 
596.004144  	0.373645 
597.932960  	0.371063 
599.861776  	0.368752 
601.790592  	0.367379 
603.719408  	0.366823 
605.648224  	0.365274 
607.577040  	0.363668 
609.505856  	0.361889 
611.434672  	0.360486 
613.363488  	0.358104 
615.292304  	0.357056 
617.221120  	0.355715 
619.149936  	0.354881 
621.078752  	0.353310 
623.007568  	0.351592 
624.936384  	0.350023 
626.865200  	0.348916 
628.794016  	0.347571 
630.722832  	0.347062 
632.651648  	0.346599 
634.580464  	0.346398 
636.509280  	0.346487 
638.438096  	0.347082 
640.366912  	0.346742 
642.295728  	0.345362 
644.224544  	0.342961 
646.153360  	0.339609 
648.082176  	0.335360 
650.010992  	0.332651 
651.939808  	0.329524 
653.868624  	0.325885 
655.797440  	0.322140 
657.726256  	0.318146 
659.655072  	0.314087 
661.583888  	0.310248 
663.512704  	0.306352 
665.441520  	0.303617 
667.370336  	0.296349 
669.299152  	0.288484 
671.227968  	0.288885 
673.156784  	0.287027 
675.085600  	0.284195 
677.014416  	0.281603 
678.943232  	0.279229 
680.872048  	0.277591 
682.800864  	0.275880 
684.729680  	0.274908 
686.658496  	0.273757 
688.587312  	0.272653 
690.516128  	0.271035 
692.444944  	0.269832 
694.373760  	0.268822 
696.302576  	0.266848 
698.231392  	0.264355 
700.160208  	0.261992 
702.089024  	0.259910 
704.017840  	0.257976 
705.946656  	0.255735 
707.875472  	0.253584 
709.804288  	0.251305 
711.733104  	0.249591 
713.661920  	0.247908 
715.590736  	0.246676 
717.519552  	0.245800 
719.448368  	0.245681 
721.377184  	0.246090 
723.306000  	0.246742 
725.234816  	0.247215 
727.163632  	0.247184 
729.092448  	0.245271 
731.021264  	0.242188 
732.950080  	0.238816 
734.878896  	0.235845 
736.807712  	0.233205 
738.736528  	0.230647 
740.665344  	0.228604 
742.594160  	0.227116 
744.522976  	0.225501 
746.451792  	0.223990 
748.380608  	0.222490 
750.309424  	0.221208 
752.238240  	0.220243 
754.167056  	0.219560 
756.095872  	0.218318 
758.024688  	0.217603 
759.953504  	0.217328 
761.882320  	0.218131 
763.811136  	0.218826 
765.739952  	0.217953 
767.668768  	0.215534 
769.597584  	0.213211 
771.526400  	0.212245 
773.455216  	0.213758 
775.384032  	0.217101 
777.312848  	0.222013 
779.241664  	0.226444 
781.170480  	0.227043 
783.099296  	0.223395 
785.028112  	0.217640 
786.956928  	0.211716 
788.885744  	0.207133 
790.814560  	0.203678 
792.743376  	0.201332 
794.672192  	0.200034 
796.601008  	0.199181 
798.529824  	0.196733 
800.458640  	0.192535 
802.387456  	0.188786 
804.316272  	0.186731 
806.245088  	0.185720 
808.173904  	0.185076 
810.102720  	0.184909 
812.031536  	0.185145 
813.960352  	0.185475 
815.889168  	0.185869 
817.817984  	0.186280 
819.746800  	0.186819 
821.675616  	0.187119 
823.604432  	0.187167 
825.533248  	0.187227 
827.462064  	0.186860 
829.390880  	0.186146 
831.319696  	0.185136 
833.248512  	0.183311 
835.177328  	0.180976 
837.106144  	0.178620 
839.034960  	0.175721 
840.963776  	0.172113 
842.892592  	0.168649 
844.821408  	0.165421 
846.750224  	0.162325 
848.679040  	0.159622 
850.607856  	0.157534 
852.536672  	0.155869 
854.465488  	0.154500 
856.394304  	0.153336 
858.323120  	0.151883 
860.251936  	0.150220 
862.180752  	0.148220 
864.109568  	0.145924 
866.038384  	0.143532 
867.967200  	0.141725 
869.896016  	0.140036 
871.824832  	0.139078 
873.753648  	0.139037 
875.682464  	0.139877 
877.611280  	0.140611 
879.540096  	0.141383 
881.468912  	0.143240 
883.397728  	0.144893 
885.326544  	0.146431 
887.255360  	0.146983 
889.184176  	0.146021 
891.112992  	0.144131 
893.041808  	0.142500 
894.970624  	0.139972 
896.899440  	0.136472 
898.828256  	0.132383 
900.757072  	0.128442 
902.685888  	0.125174 
904.614704  	0.123373 
906.543520  	0.123467 
908.472336  	0.124983 
910.401152  	0.127362 
912.329968  	0.130067 
914.258784  	0.133215 
916.187600  	0.136321 
918.116416  	0.138699 
920.045232  	0.140266 
921.974048  	0.141239 
923.902864  	0.141622 
925.831680  	0.141368 
927.760496  	0.141324 
929.689312  	0.141574 
931.618128  	0.142249 
933.546944  	0.142828 
935.475760  	0.143086 
937.404576  	0.142850 
939.333392  	0.142365 
941.262208  	0.142339 
943.191024  	0.143722 
945.119840  	0.147361 
947.048656  	0.153093 
948.977472  	0.160597 
950.906288  	0.169985 
952.835104  	0.180646 
954.763920  	0.191885 
956.692736  	0.202474 
958.621552  	0.211484 
960.550368  	0.217744 
962.479184  	0.220777 
964.408000  	0.219765 
966.336816  	0.215043 
968.265632  	0.206913 
970.194448  	0.195969 
972.123264  	0.183126 
974.052080  	0.169563 
975.980896  	0.156444 
977.909712  	0.144443 
979.838528  	0.133558 
981.767344  	0.124498 
983.696160  	0.117798 
985.624976  	0.113733 
987.553792  	0.112175 
989.482608  	0.113325 
991.411424  	0.116749 
993.340240  	0.121917 
995.269056  	0.128322 
997.197872  	0.135204 
999.126688  	0.142182 
1001.055504  	0.149255 
1002.984320  	0.156310 
1004.913136  	0.163201 
1006.841952  	0.169793 
1008.770768  	0.175259 
1010.699584  	0.179130 
1012.628400  	0.181581 
1014.557216  	0.182492 
1016.486032  	0.182564 
1018.414848  	0.182211 
1020.343664  	0.181831 
1022.272480  	0.180970 
1024.201296  	0.179543 
1026.130112  	0.176509 
1028.058928  	0.175333 
1029.987744  	0.178265 
1031.916560  	0.180349 
1033.845376  	0.181789 
1035.774192  	0.183515 
1037.703008  	0.186695 
1039.631824  	0.192998 
1041.560640  	0.201728 
1043.489456  	0.213436 
1045.418272  	0.227441 
1047.347088  	0.242954 
1049.275904  	0.257183 
1051.204720  	0.268204 
1053.133536  	0.274815 
1055.062352  	0.277163 
1056.991168  	0.276367 
1058.919984  	0.277135 
1060.848800  	0.277587 
1062.777616  	0.275086 
1064.706432  	0.269017 
1066.635248  	0.263632 
1068.564064  	0.261148 
1070.492880  	0.256274 
1072.421696  	0.248653 
1074.350512  	0.243239 
1076.279328  	0.241656 
1078.208144  	0.243781 
1080.136960  	0.248269 
1082.065776  	0.253817 
1083.994592  	0.257154 
1085.923408  	0.257440 
1087.852224  	0.255126 
1089.781040  	0.250614 
1091.709856  	0.244650 
1093.638672  	0.236493 
1095.567488  	0.225760 
1097.496304  	0.214068 
1099.425120  	0.201737 
1101.353936  	0.189187 
1103.282752  	0.176750 
1105.211568  	0.165259 
1107.140384  	0.154283 
1109.069200  	0.144028 
1110.998016  	0.134348 
1112.926832  	0.125596 
1114.855648  	0.117683 
1116.784464  	0.110060 
1118.713280  	0.102517 
1120.642096  	0.095591 
1122.570912  	0.089257 
1124.499728  	0.083314 
1126.428544  	0.078052 
1128.357360  	0.073282 
1130.286176  	0.069471 
1132.214992  	0.066115 
1134.143808  	0.063229 
1136.072624  	0.060847 
1138.001440  	0.058854 
1139.930256  	0.056479 
1141.859072  	0.054174 
1143.787888  	0.051878 
1145.716704  	0.049691 
1147.645520  	0.047481 
1149.574336  	0.045851 
1151.503152  	0.044510 
1153.431968  	0.044026 
1155.360784  	0.044356 
1157.289600  	0.045242 
1159.218416  	0.046558 
1161.147232  	0.048533 
1163.076048  	0.050786 
1165.004864  	0.053214 
1166.933680  	0.055410 
1168.862496  	0.057762 
1170.791312  	0.060319 
1172.720128  	0.063361 
1174.648944  	0.066339 
1176.577760  	0.069279 
1178.506576  	0.072015 
1180.435392  	0.074776 
1182.364208  	0.077633 
1184.293024  	0.080830 
1186.221840  	0.084294 
1188.150656  	0.088147 
1190.079472  	0.092551 
1192.008288  	0.097986 
1193.937104  	0.104515 
1195.865920  	0.112081 
1197.794736  	0.120571 
1199.723552  	0.129863 
1201.652368  	0.139310 
1203.581184  	0.148573 
1205.510000  	0.157536 
1207.438816  	0.166250 
1209.367632  	0.174331 
1211.296448  	0.181243 
1213.225264  	0.187001 
1215.154080  	0.191296 
1217.082896  	0.194286 
1219.011712  	0.196043 
1220.940528  	0.197346 
1222.869344  	0.197953 
1224.798160  	0.197685 
1226.726976  	0.196739 
1228.655792  	0.195639 
1230.584608  	0.193827 
1232.513424  	0.191492 
1234.442240  	0.188366 
1236.371056  	0.184536 
1238.299872  	0.179690 
1240.228688  	0.172694 
1242.157504  	0.165486 
1244.086320  	0.159514 
1246.015136  	0.152199 
1247.943952  	0.144066 
1249.872768  	0.135985 
1251.801584  	0.128984 
1253.730400  	0.121935 
1255.659216  	0.115035 
1257.588032  	0.108552 
1259.516848  	0.102442 
1261.445664  	0.096726 
1263.374480  	0.091641 
1265.303296  	0.087303 
1267.232112  	0.083779 
1269.160928  	0.081088 
1271.089744  	0.079084 
1273.018560  	0.078140 
1274.947376  	0.077985 
1276.876192  	0.078102 
1278.805008  	0.077944 
1280.733824  	0.076944 
1282.662640  	0.075043 
1284.591456  	0.072702 
1286.520272  	0.070464 
1288.449088  	0.068928 
1290.377904  	0.068283 
1292.306720  	0.068372 
1294.235536  	0.068442 
1296.164352  	0.067515 
1298.093168  	0.065229 
1300.021984  	0.062290 
1301.950800  	0.059098 
1303.879616  	0.056155 
1305.808432  	0.053036 
1307.737248  	0.049833 
1309.666064  	0.046777 
1311.594880  	0.044272 
1313.523696  	0.042340 
1315.452512  	0.041200 
1317.381328  	0.040553 
1319.310144  	0.040454 
1321.238960  	0.040783 
1323.167776  	0.041612 
1325.096592  	0.042526 
1327.025408  	0.043171 
1328.954224  	0.043160 
1330.883040  	0.042776 
1332.811856  	0.042023 
1334.740672  	0.041264 
1336.669488  	0.040562 
1338.598304  	0.039955 
1340.527120  	0.039056 
1342.455936  	0.038557 
1344.384752  	0.038297 
1346.313568  	0.038466 
1348.242384  	0.039088 
1350.171200  	0.040298 
1352.100016  	0.041868 
1354.028832  	0.043622 
1355.957648  	0.045359 
1357.886464  	0.047394 
1359.815280  	0.049364 
1361.744096  	0.051178 
1363.672912  	0.052729 
1365.601728  	0.054420 
1367.530544  	0.055659 
1369.459360  	0.056075 
1371.388176  	0.055992 
1373.316992  	0.054636 
1375.245808  	0.051800 
1377.174624  	0.049255 
1379.103440  	0.046281 
1381.032256  	0.043616 
1382.961072  	0.041629 
1384.889888  	0.040708 
1386.818704  	0.039655 
1388.747520  	0.038078 
1390.676336  	0.036104 
1392.605152  	0.032996 
1394.533968  	0.031000 
1396.462784  	0.033360 
1398.391600  	0.034492 
1400.320416  	0.034344 
1402.249232  	0.034733 
1404.178048  	0.035118 
1406.106864  	0.035795 
1408.035680  	0.037633 
1409.964496  	0.039808 
1411.893312  	0.042598 
1413.822128  	0.045663 
1415.750944  	0.048750 
1417.679760  	0.050652 
1419.608576  	0.051110 
1421.537392  	0.051816 
1423.466208  	0.051671 
1425.395024  	0.050018 
1427.323840  	0.048751 
1429.252656  	0.046527 
1431.181472  	0.044658 
1433.110288  	0.044262 
1435.039104  	0.044849 
1436.967920  	0.044528 
1438.896736  	0.045540 
1440.825552  	0.046659 
1442.754368  	0.047350 
1444.683184  	0.047599 
1446.612000  	0.047583 
1448.540816  	0.046661 
1450.469632  	0.047024 
1452.398448  	0.047704 
1454.327264  	0.048653 
1456.256080  	0.048456 
1458.184896  	0.046914 
1460.113712  	0.047733 
1462.042528  	0.048986 
1463.971344  	0.049143 
1465.900160  	0.049536 
1467.828976  	0.051643 
1469.757792  	0.054823 
1471.686608  	0.058132 
1473.615424  	0.063403 
1475.544240  	0.068975 
1477.473056  	0.074506 
1479.401872  	0.078522 
1481.330688  	0.081577 
1483.259504  	0.083712 
1485.188320  	0.085240 
1487.117136  	0.085252 
1489.045952  	0.084288 
1490.974768  	0.081501 
1492.903584  	0.079619 
1494.832400  	0.076658 
1496.761216  	0.070700 
1498.690032  	0.064624 
1500.618848  	0.060083 
1502.547664  	0.056594 
1504.476480  	0.053894 
1506.405296  	0.047990 
1508.334112  	0.043040 
1510.262928  	0.042812 
1512.191744  	0.041716 
1514.120560  	0.041061 
1516.049376  	0.040587 
1517.978192  	0.040425 
1519.907008  	0.042133 
1521.835824  	0.043671 
1523.764640  	0.047266 
1525.693456  	0.050483 
1527.622272  	0.052486 
1529.551088  	0.053454 
1531.479904  	0.053138 
1533.408720  	0.049839 
1535.337536  	0.046762 
1537.266352  	0.045637 
1539.195168  	0.041240 
1541.123984  	0.034939 
1543.052800  	0.034158 
1544.981616  	0.032994 
1546.910432  	0.032639 
1548.839248  	0.032668 
1550.768064  	0.032650 
1552.696880  	0.033292 
1554.625696  	0.034393 
1556.554512  	0.035779 
1558.483328  	0.035951 
1560.412144  	0.038402 
1562.340960  	0.043870 
1564.269776  	0.047657 
1566.198592  	0.052685 
1568.127408  	0.057063 
1570.056224  	0.062635 
1571.985040  	0.068852 
1573.913856  	0.073625 
1575.842672  	0.075619 
1577.771488  	0.077792 
1579.700304  	0.078875 
1581.629120  	0.078599 
1583.557936  	0.077943 
1585.486752  	0.078743 
1587.415568  	0.080999 
1589.344384  	0.085348 
1591.273200  	0.091109 
1593.202016  	0.098171 
1595.130832  	0.105470 
1597.059648  	0.113144 
1598.988464  	0.119487 
1600.917280  	0.125155 
1602.846096  	0.128859 
1604.774912  	0.131273 
1606.703728  	0.131422 
1608.632544  	0.130724 
1610.561360  	0.128845 
1612.490176  	0.127393 
1614.418992  	0.125871 
1616.347808  	0.124361 
1618.276624  	0.124982 
1620.205440  	0.128425 
1622.134256  	0.131341 
1624.063072  	0.137293 
1625.991888  	0.143842 
1627.920704  	0.151622 
1629.849520  	0.160429 
1631.778336  	0.169116 
1633.707152  	0.175935 
1635.635968  	0.184084 
1637.564784  	0.192836 
1639.493600  	0.199016 
1641.422416  	0.203341 
1643.351232  	0.207037 
1645.280048  	0.207933 
1647.208864  	0.207737 
1649.137680  	0.208554 
1651.066496  	0.208969 
1652.995312  	0.203301 
1654.924128  	0.201003 
1656.852944  	0.200431 
1658.781760  	0.198094 
1660.710576  	0.194625 
1662.639392  	0.189910 
1664.568208  	0.185871 
1666.497024  	0.183243 
1668.425840  	0.178295 
1670.354656  	0.172198 
1672.283472  	0.168963 
1674.212288  	0.165934 
1676.141104  	0.161187 
1678.069920  	0.159682 
1679.998736  	0.158250 
1681.927552  	0.157314 
1683.856368  	0.154039 
1685.785184  	0.152996 
1687.714000  	0.153786 
1689.642816  	0.153087 
1691.571632  	0.151871 
1693.500448  	0.151078 
1695.429264  	0.147781 
1697.358080  	0.145068 
1699.286896  	0.142849 
1701.215712  	0.137532 
1703.144528  	0.136383 
1705.073344  	0.132595 
1707.002160  	0.127041 
1708.930976  	0.122630 
1710.859792  	0.117064 
1712.788608  	0.110688 
1714.717424  	0.102706 
1716.646240  	0.092852 
1718.575056  	0.080477 
1720.503872  	0.072777 
1722.432688  	0.066090 
1724.361504  	0.057390 
1726.290320  	0.050356 
1728.219136  	0.044110 
1730.147952  	0.038537 
1732.076768  	0.034358 
1734.005584  	0.028404 
1735.934400  	0.023467 
1737.863216  	0.023168 
1739.792032  	0.020066 
1741.720848  	0.018393 
1743.649664  	0.017074 
1745.578480  	0.016259 
1747.507296  	0.014988 
1749.436112  	0.013890 
1751.364928  	0.012427 
1753.293744  	0.012209 
1755.222560  	0.012083 
1757.151376  	0.011151 
1759.080192  	0.010778 
1761.009008  	0.010493 
1762.937824  	0.009031 
1764.866640  	0.009316 
1766.795456  	0.009395 
1768.724272  	0.009078 
1770.653088  	0.008446 
1772.581904  	0.006688 
1774.510720  	0.006466 
1776.439536  	0.007259 
1778.368352  	0.007262 
1780.297168  	0.006921 
1782.225984  	0.006385 
1784.154800  	0.006615 
1786.083616  	0.006151 
1788.012432  	0.006572 
1789.941248  	0.006816 
1791.870064  	0.006012 
1793.798880  	0.004909 
1795.727696  	0.005687 
1797.656512  	0.005686 
1799.585328  	0.005637 
1801.514144  	0.005027 
1803.442960  	0.005167 
1805.371776  	0.005064 
1807.300592  	0.005215 
1809.229408  	0.004865 
1811.158224  	0.004587 
1813.087040  	0.004223 
1815.015856  	0.004543 
1816.944672  	0.004394 
1818.873488  	0.004562 
1820.802304  	0.004536 
1822.731120  	0.005166 
1824.659936  	0.004418 
1826.588752  	0.003837 
1828.517568  	0.003744 
1830.446384  	0.003373 
1832.375200  	0.003514 
1834.304016  	0.004155 
1836.232832  	0.004231 
1838.161648  	0.004329 
1840.090464  	0.004067 
1842.019280  	0.004581 
1843.948096  	0.003646 
1845.876912  	0.003236 
1847.805728  	0.003555 
1849.734544  	0.003851 
1851.663360  	0.003863 
1853.592176  	0.003965 
1855.520992  	0.003701 
1857.449808  	0.003703 
1859.378624  	0.003582 
1861.307440  	0.003721 
1863.236256  	0.003555 
1865.165072  	0.003728 
1867.093888  	0.003619 
1869.022704  	0.003261 
1870.951520  	0.002960 
1872.880336  	0.003618 
1874.809152  	0.003550 
1876.737968  	0.003479 
1878.666784  	0.003014 
1880.595600  	0.003420 
1882.524416  	0.003259 
1884.453232  	0.003201 
1886.382048  	0.003000 
1888.310864  	0.002985 
1890.239680  	0.002044 
1892.168496  	0.002584 
1894.097312  	0.002675 
1896.026128  	0.002848 
1897.954944  	0.002926 
1899.883760  	0.003332 
1901.812576  	0.002918 
1903.741392  	0.002816 
1905.670208  	0.002772 
1907.599024  	0.002956 
1909.527840  	0.002654 
1911.456656  	0.003047 
1913.385472  	0.003011 
1915.314288  	0.003605 
1917.243104  	0.003278 
1919.171920  	0.003119 
1921.100736  	0.002923 
1923.029552  	0.002830 
1924.958368  	0.002729 
1926.887184  	0.002931 
1928.816000  	0.002593 
1930.744816  	0.002846 
1932.673632  	0.002547 
1934.602448  	0.002676 
1936.531264  	0.002634 
1938.460080  	0.003073 
1940.388896  	0.002470 
1942.317712  	0.002225 
1944.246528  	0.001985 
1946.175344  	0.002771 
1948.104160  	0.002289 
1950.032976  	0.002871 
1951.961792  	0.002551 
1953.890608  	0.002294 
1955.819424  	0.001795 
1957.748240  	0.002079 
1959.677056  	0.001925 
1961.605872  	0.002704 
1963.534688  	0.002304 
1965.463504  	0.002679 
1967.392320  	0.001496 
1969.321136  	0.001895 
1971.249952  	0.002207 
1973.178768  	0.003157 
1975.107584  	0.002645 
1977.036400  	0.004045 
1978.965216  	0.005452 
1980.894032  	0.004660 
1982.822848  	0.003130 
1984.751664  	0.003317 
1986.680480  	0.002342 
1988.609296  	0.002764 
1990.538112  	0.002834 
1992.466928  	0.003593 
1994.395744  	0.002610 
1996.324560  	0.002935 
1998.253376  	0.002383 
2000.182192  	0.002761 
2002.111008  	0.003097 
2004.039824  	0.003128 
2005.968640  	0.002174 
2007.897456  	0.002949 
2009.826272  	0.002429 
2011.755088  	0.003143 
2013.683904  	0.002437 
2015.612720  	0.002393 
2017.541536  	0.002309 
2019.470352  	0.004074 
2021.399168  	0.003543 
2023.327984  	0.003028 
2025.256800  	0.003480 
2027.185616  	0.004605 
2029.114432  	0.003636 
2031.043248  	0.004447 
2032.972064  	0.003747 
2034.900880  	0.003436 
2036.829696  	0.003649 
2038.758512  	0.004874 
2040.687328  	0.004014 
2042.616144  	0.003622 
2044.544960  	0.002775 
2046.473776  	0.003449 
2048.402592  	0.003883 
2050.331408  	0.004177 
2052.260224  	0.003220 
2054.189040  	0.003025 
2056.117856  	0.002404 
2058.046672  	0.002778 
2059.975488  	0.002762 
2061.904304  	0.002623 
2063.833120  	0.002497 
2065.761936  	0.002467 
2067.690752  	0.002286 
2069.619568  	0.003164 
2071.548384  	0.003244 
2073.477200  	0.002812 
2075.406016  	0.003101 
2077.334832  	0.003391 
2079.263648  	0.002933 
2081.192464  	0.003175 
2083.121280  	0.003390 
2085.050096  	0.003493 
2086.978912  	0.003184 
2088.907728  	0.003318 
2090.836544  	0.003107 
2092.765360  	0.003018 
2094.694176  	0.003286 
2096.622992  	0.003916 
2098.551808  	0.004031 
2100.480624  	0.004516 
2102.409440  	0.004032 
2104.338256  	0.003688 
2106.267072  	0.003748 
2108.195888  	0.003951 
2110.124704  	0.003600 
2112.053520  	0.003988 
2113.982336  	0.003778 
2115.911152  	0.003667 
2117.839968  	0.003517 
2119.768784  	0.003263 
2121.697600  	0.002722 
2123.626416  	0.003144 
2125.555232  	0.003157 
2127.484048  	0.003239 
2129.412864  	0.002954 
2131.341680  	0.002361 
2133.270496  	0.002038 
2135.199312  	0.003255 
2137.128128  	0.003796 
2139.056944  	0.004230 
2140.985760  	0.003781 
2142.914576  	0.004508 
2144.843392  	0.005084 
2146.772208  	0.004613 
2148.701024  	0.003729 
2150.629840  	0.004451 
2152.558656  	0.003623 
2154.487472  	0.002813 
2156.416288  	0.002461 
2158.345104  	0.004202 
2160.273920  	0.007346 
2162.202736  	0.007973 
2164.131552  	0.006600 
2166.060368  	0.005878 
2167.989184  	0.005890 
2169.918000  	0.007286 
2171.846816  	0.006087 
2173.775632  	0.004938 
2175.704448  	0.005346 
2177.633264  	0.006761 
2179.562080  	0.006333 
2181.490896  	0.005617 
2183.419712  	0.005142 
2185.348528  	0.005252 
2187.277344  	0.004855 
2189.206160  	0.004406 
2191.134976  	0.003847 
2193.063792  	0.004236 
2194.992608  	0.004254 
2196.921424  	0.004048 
2198.850240  	0.003986 
2200.779056  	0.004128 
2202.707872  	0.003882 
2204.636688  	0.004552 
2206.565504  	0.004930 
2208.494320  	0.004824 
2210.423136  	0.003701 
2212.351952  	0.003107 
2214.280768  	0.003295 
2216.209584  	0.003879 
2218.138400  	0.003595 
2220.067216  	0.003549 
2221.996032  	0.003497 
2223.924848  	0.003881 
2225.853664  	0.004510 
2227.782480  	0.004999 
2229.711296  	0.004161 
2231.640112  	0.003471 
2233.568928  	0.003302 
2235.497744  	0.003778 
2237.426560  	0.003344 
2239.355376  	0.003127 
2241.284192  	0.002982 
2243.213008  	0.002948 
2245.141824  	0.002743 
2247.070640  	0.003248 
2248.999456  	0.003140 
2250.928272  	0.003024 
2252.857088  	0.002967 
2254.785904  	0.003247 
2256.714720  	0.002967 
2258.643536  	0.002999 
2260.572352  	0.002684 
2262.501168  	0.002396 
2264.429984  	0.002381 
2266.358800  	0.002487 
2268.287616  	0.002383 
2270.216432  	0.002578 
2272.145248  	0.002705 
2274.074064  	0.002889 
2276.002880  	0.002947 
2277.931696  	0.002966 
2279.860512  	0.002765 
2281.789328  	0.002916 
2283.718144  	0.002809 
2285.646960  	0.002938 
2287.575776  	0.003027 
2289.504592  	0.002846 
2291.433408  	0.002536 
2293.362224  	0.002569 
2295.291040  	0.002586 
2297.219856  	0.002625 
2299.148672  	0.002460 
2301.077488  	0.002487 
2303.006304  	0.002315 
2304.935120  	0.002095 
2306.863936  	0.001806 
2308.792752  	0.001737 
2310.721568  	0.001305 
2312.650384  	0.001046 
2314.579200  	0.000793 
2316.508016  	0.000193 
2318.436832  	-0.000319 
2320.365648  	-0.000817 
2322.294464  	-0.001692 
2324.223280  	-0.002221 
2326.152096  	-0.003110 
2328.080912  	-0.004173 
2330.009728  	-0.005254 
2331.938544  	-0.006063 
2333.867360  	-0.006260 
2335.796176  	-0.006332 
2337.724992  	-0.006820 
2339.653808  	-0.007077 
2341.582624  	-0.007654 
2343.511440  	-0.007855 
2345.440256  	-0.007169 
2347.369072  	-0.004466 
2349.297888  	-0.002437 
2351.226704  	-0.003400 
2353.155520  	-0.006326 
2355.084336  	-0.008390 
2357.013152  	-0.010138 
2358.941968  	-0.011548 
2360.870784  	-0.012775 
2362.799600  	-0.012153 
2364.728416  	-0.011112 
2366.657232  	-0.009850 
2368.586048  	-0.008692 
2370.514864  	-0.007147 
2372.443680  	-0.005665 
2374.372496  	-0.003742 
2376.301312  	-0.002143 
2378.230128  	-0.000983 
2380.158944  	-0.000066 
2382.087760  	0.000812 
2384.016576  	0.001326 
2385.945392  	0.001650 
2387.874208  	0.001684 
2389.803024  	0.001725 
2391.731840  	0.001718 
2393.660656  	0.001745 
2395.589472  	0.001821 
2397.518288  	0.001923 
2399.447104  	0.001768 
2401.375920  	0.001731 
2403.304736  	0.001586 
2405.233552  	0.001647 
2407.162368  	0.001542 
2409.091184  	0.001629 
2411.020000  	0.001786 
2412.948816  	0.001911 
2414.877632  	0.002153 
2416.806448  	0.002324 
2418.735264  	0.002024 
2420.664080  	0.001877 
2422.592896  	0.001961 
2424.521712  	0.002085 
2426.450528  	0.001787 
2428.379344  	0.001789 
2430.308160  	0.002072 
2432.236976  	0.002244 
2434.165792  	0.002109 
2436.094608  	0.002057 
2438.023424  	0.002064 
2439.952240  	0.002190 
2441.881056  	0.002140 
2443.809872  	0.002063 
2445.738688  	0.002341 
2447.667504  	0.002754 
2449.596320  	0.002632 
2451.525136  	0.002483 
2453.453952  	0.002375 
2455.382768  	0.002463 
2457.311584  	0.002532 
2459.240400  	0.002409 
2461.169216  	0.002169 
2463.098032  	0.002160 
2465.026848  	0.002287 
2466.955664  	0.002422 
2468.884480  	0.002181 
2470.813296  	0.002277 
2472.742112  	0.002452 
2474.670928  	0.002510 
2476.599744  	0.002443 
2478.528560  	0.002469 
2480.457376  	0.002507 
2482.386192  	0.002468 
2484.315008  	0.002525 
2486.243824  	0.002372 
2488.172640  	0.002326 
2490.101456  	0.002674 
2492.030272  	0.002859 
2493.959088  	0.002976 
2495.887904  	0.002995 
2497.816720  	0.002867 
2499.745536  	0.002851 
2501.674352  	0.002899 
2503.603168  	0.003108 
2505.531984  	0.003196 
2507.460800  	0.002828 
2509.389616  	0.002932 
2511.318432  	0.003077 
2513.247248  	0.003162 
2515.176064  	0.003185 
2517.104880  	0.003313 
2519.033696  	0.003229 
2520.962512  	0.003278 
2522.891328  	0.003584 
2524.820144  	0.003708 
2526.748960  	0.003847 
2528.677776  	0.004042 
2530.606592  	0.004016 
2532.535408  	0.003895 
2534.464224  	0.003641 
2536.393040  	0.003600 
2538.321856  	0.003610 
2540.250672  	0.003869 
2542.179488  	0.003969 
2544.108304  	0.003904 
2546.037120  	0.004042 
2547.965936  	0.004119 
2549.894752  	0.003979 
2551.823568  	0.004177 
2553.752384  	0.004404 
2555.681200  	0.004533 
2557.610016  	0.004396 
2559.538832  	0.004386 
2561.467648  	0.004539 
2563.396464  	0.004674 
2565.325280  	0.004826 
2567.254096  	0.004939 
2569.182912  	0.004998 
2571.111728  	0.005120 
2573.040544  	0.005052 
2574.969360  	0.004939 
2576.898176  	0.005047 
2578.826992  	0.005100 
2580.755808  	0.005248 
2582.684624  	0.005523 
2584.613440  	0.005644 
2586.542256  	0.005781 
2588.471072  	0.005958 
2590.399888  	0.006041 
2592.328704  	0.005956 
2594.257520  	0.005847 
2596.186336  	0.005859 
2598.115152  	0.005997 
2600.043968  	0.005978 
2601.972784  	0.006118 
2603.901600  	0.006182 
2605.830416  	0.006254 
2607.759232  	0.006348 
2609.688048  	0.006378 
2611.616864  	0.006416 
2613.545680  	0.006581 
2615.474496  	0.006846 
2617.403312  	0.006950 
2619.332128  	0.007017 
2621.260944  	0.007115 
2623.189760  	0.007076 
2625.118576  	0.007146 
2627.047392  	0.007261 
2628.976208  	0.007329 
2630.905024  	0.007470 
2632.833840  	0.007639 
2634.762656  	0.007701 
2636.691472  	0.007749 
2638.620288  	0.007845 
2640.549104  	0.008026 
2642.477920  	0.008049 
2644.406736  	0.008232 
2646.335552  	0.008360 
2648.264368  	0.008487 
2650.193184  	0.008571 
2652.122000  	0.008745 
2654.050816  	0.008923 
2655.979632  	0.009068 
2657.908448  	0.009235 
2659.837264  	0.009289 
2661.766080  	0.009282 
2663.694896  	0.009339 
2665.623712  	0.009408 
2667.552528  	0.009645 
2669.481344  	0.009793 
2671.410160  	0.009874 
2673.338976  	0.009927 
2675.267792  	0.010097 
2677.196608  	0.010317 
2679.125424  	0.010439 
2681.054240  	0.010441 
2682.983056  	0.010484 
2684.911872  	0.010460 
2686.840688  	0.010621 
2688.769504  	0.010881 
2690.698320  	0.010953 
2692.627136  	0.010967 
2694.555952  	0.010997 
2696.484768  	0.011035 
2698.413584  	0.011201 
2700.342400  	0.011323 
2702.271216  	0.011504 
2704.200032  	0.011726 
2706.128848  	0.011847 
2708.057664  	0.011827 
2709.986480  	0.011880 
2711.915296  	0.012028 
2713.844112  	0.012224 
2715.772928  	0.012283 
2717.701744  	0.012355 
2719.630560  	0.012557 
2721.559376  	0.012623 
2723.488192  	0.012796 
2725.417008  	0.013046 
2727.345824  	0.013138 
2729.274640  	0.013166 
2731.203456  	0.013261 
2733.132272  	0.013414 
2735.061088  	0.013548 
2736.989904  	0.013659 
2738.918720  	0.013665 
2740.847536  	0.013722 
2742.776352  	0.013818 
2744.705168  	0.013895 
2746.633984  	0.013977 
2748.562800  	0.014090 
2750.491616  	0.014228 
2752.420432  	0.014381 
2754.349248  	0.014322 
2756.278064  	0.014301 
2758.206880  	0.014192 
2760.135696  	0.014182 
2762.064512  	0.014387 
2763.993328  	0.014480 
2765.922144  	0.014370 
2767.850960  	0.014350 
2769.779776  	0.014373 
2771.708592  	0.014473 
2773.637408  	0.014361 
2775.566224  	0.014165 
2777.495040  	0.014062 
2779.423856  	0.014230 
2781.352672  	0.014259 
2783.281488  	0.014132 
2785.210304  	0.014070 
2787.139120  	0.014155 
2789.067936  	0.014222 
2790.996752  	0.014246 
2792.925568  	0.014163 
2794.854384  	0.014167 
2796.783200  	0.014134 
2798.712016  	0.014005 
2800.640832  	0.013930 
2802.569648  	0.013997 
2804.498464  	0.014068 
2806.427280  	0.014009 
2808.356096  	0.013931 
2810.284912  	0.014002 
2812.213728  	0.013985 
2814.142544  	0.013892 
2816.071360  	0.013928 
2818.000176  	0.013903 
2819.928992  	0.013818 
2821.857808  	0.013771 
2823.786624  	0.013675 
2825.715440  	0.013619 
2827.644256  	0.013442 
2829.573072  	0.013413 
2831.501888  	0.013185 
2833.430704  	0.012773 
2835.359520  	0.012435 
2837.288336  	0.012142 
2839.217152  	0.011816 
2841.145968  	0.011464 
2843.074784  	0.011134 
2845.003600  	0.010692 
2846.932416  	0.010288 
2848.861232  	0.009944 
2850.790048  	0.009502 
2852.718864  	0.008915 
2854.647680  	0.008422 
2856.576496  	0.008006 
2858.505312  	0.007486 
2860.434128  	0.007059 
2862.362944  	0.006443 
2864.291760  	0.005718 
2866.220576  	0.005233 
2868.149392  	0.005030 
2870.078208  	0.004813 
2872.007024  	0.004741 
2873.935840  	0.004942 
2875.864656  	0.004929 
2877.793472  	0.004850 
2879.722288  	0.004834 
2881.651104  	0.004595 
2883.579920  	0.004309 
2885.508736  	0.004395 
2887.437552  	0.004754 
2889.366368  	0.004855 
2891.295184  	0.004690 
2893.224000  	0.004487 
2895.152816  	0.004474 
2897.081632  	0.004191 
2899.010448  	0.002545 
2900.939264  	0.001179 
2902.868080  	0.002420 
2904.796896  	0.003580 
2906.725712  	0.004008 
2908.654528  	0.004588 
2910.583344  	0.005113 
2912.512160  	0.005664 
2914.440976  	0.006589 
2916.369792  	0.007362 
2918.298608  	0.007878 
2920.227424  	0.008323 
2922.156240  	0.008994 
2924.085056  	0.009845 
2926.013872  	0.010832 
2927.942688  	0.011766 
2929.871504  	0.012645 
2931.800320  	0.013560 
2933.729136  	0.014574 
2935.657952  	0.015363 
2937.586768  	0.016059 
2939.515584  	0.016741 
2941.444400  	0.017049 
2943.373216  	0.017181 
2945.302032  	0.017523 
2947.230848  	0.017669 
2949.159664  	0.017402 
2951.088480  	0.016867 
2953.017296  	0.016310 
2954.946112  	0.015708 
2956.874928  	0.015090 
2958.803744  	0.014300 
2960.732560  	0.013710 
2962.661376  	0.013118 
2964.590192  	0.012289 
2966.519008  	0.011184 
2968.447824  	0.010174 
2970.376640  	0.009421 
2972.305456  	0.008876 
2974.234272  	0.008885 
2976.163088  	0.009205 
2978.091904  	0.009376 
2980.020720  	0.009360 
2981.949536  	0.009650 
2983.878352  	0.009451 
2985.807168  	0.008461 
2987.735984  	0.007564 
2989.664800  	0.008026 
2991.593616  	0.011013 
2993.522432  	0.012965 
2995.451248  	0.013435 
2997.380064  	0.014111 
2999.308880  	0.015272 
3001.237696  	0.016588 
3003.166512  	0.018017 
3005.095328  	0.019322 
3007.024144  	0.020619 
3008.952960  	0.021990 
3010.881776  	0.023366 
3012.810592  	0.024724 
3014.739408  	0.026034 
3016.668224  	0.027221 
3018.597040  	0.028405 
3020.525856  	0.029416 
3022.454672  	0.030433 
3024.383488  	0.031580 
3026.312304  	0.032631 
3028.241120  	0.033644 
3030.169936  	0.034461 
3032.098752  	0.035147 
3034.027568  	0.036094 
3035.956384  	0.037111 
3037.885200  	0.038056 
3039.814016  	0.038661 
3041.742832  	0.039239 
3043.671648  	0.039879 
3045.600464  	0.040518 
3047.529280  	0.040968 
3049.458096  	0.041572 
3051.386912  	0.042415 
3053.315728  	0.042994 
3055.244544  	0.043521 
3057.173360  	0.044295 
3059.102176  	0.044921 
3061.030992  	0.045463 
3062.959808  	0.046208 
3064.888624  	0.046988 
3066.817440  	0.047806 
3068.746256  	0.048724 
3070.675072  	0.049657 
3072.603888  	0.050376 
3074.532704  	0.051100 
3076.461520  	0.051740 
3078.390336  	0.052456 
3080.319152  	0.053292 
3082.247968  	0.054053 
3084.176784  	0.054836 
3086.105600  	0.055648 
3088.034416  	0.056348 
3089.963232  	0.057060 
3091.892048  	0.057776 
3093.820864  	0.058438 
3095.749680  	0.059190 
3097.678496  	0.060130 
3099.607312  	0.061108 
3101.536128  	0.062006 
3103.464944  	0.062939 
3105.393760  	0.063748 
3107.322576  	0.064509 
3109.251392  	0.065191 
3111.180208  	0.065841 
3113.109024  	0.066625 
3115.037840  	0.067231 
3116.966656  	0.067902 
3118.895472  	0.068678 
3120.824288  	0.069292 
3122.753104  	0.069902 
3124.681920  	0.070282 
3126.610736  	0.070922 
3128.539552  	0.071861 
3130.468368  	0.072524 
3132.397184  	0.072987 
3134.326000  	0.073637 
3136.254816  	0.074212 
3138.183632  	0.074674 
3140.112448  	0.075215 
3142.041264  	0.075785 
3143.970080  	0.076345 
3145.898896  	0.076943 
3147.827712  	0.077528 
3149.756528  	0.078013 
3151.685344  	0.078543 
3153.614160  	0.079308 
3155.542976  	0.079945 
3157.471792  	0.080516 
3159.400608  	0.081264 
3161.329424  	0.081830 
3163.258240  	0.082220 
3165.187056  	0.082799 
3167.115872  	0.083441 
3169.044688  	0.083862 
3170.973504  	0.084262 
3172.902320  	0.084617 
3174.831136  	0.085129 
3176.759952  	0.085682 
3178.688768  	0.085902 
3180.617584  	0.086207 
3182.546400  	0.086599 
3184.475216  	0.086892 
3186.404032  	0.086923 
3188.332848  	0.086999 
3190.261664  	0.087271 
3192.190480  	0.087324 
3194.119296  	0.087240 
3196.048112  	0.087328 
3197.976928  	0.087251 
3199.905744  	0.087098 
3201.834560  	0.086979 
3203.763376  	0.087098 
3205.692192  	0.087071 
3207.621008  	0.086837 
3209.549824  	0.086715 
3211.478640  	0.086689 
3213.407456  	0.086615 
3215.336272  	0.086386 
3217.265088  	0.086118 
3219.193904  	0.085964 
3221.122720  	0.085842 
3223.051536  	0.085706 
3224.980352  	0.085423 
3226.909168  	0.085336 
3228.837984  	0.085192 
3230.766800  	0.085093 
3232.695616  	0.085097 
3234.624432  	0.084809 
3236.553248  	0.084744 
3238.482064  	0.084917 
3240.410880  	0.084978 
3242.339696  	0.085110 
3244.268512  	0.085045 
3246.197328  	0.085083 
3248.126144  	0.085388 
3250.054960  	0.085451 
3251.983776  	0.085559 
3253.912592  	0.085682 
3255.841408  	0.085888 
3257.770224  	0.086167 
3259.699040  	0.086364 
3261.627856  	0.086566 
3263.556672  	0.086731 
3265.485488  	0.086753 
3267.414304  	0.087029 
3269.343120  	0.087478 
3271.271936  	0.087664 
3273.200752  	0.087624 
3275.129568  	0.087668 
3277.058384  	0.087996 
3278.987200  	0.088324 
3280.916016  	0.088463 
3282.844832  	0.088618 
3284.773648  	0.088763 
3286.702464  	0.089066 
3288.631280  	0.089367 
3290.560096  	0.089560 
3292.488912  	0.089858 
3294.417728  	0.090118 
3296.346544  	0.090286 
3298.275360  	0.090485 
3300.204176  	0.090901 
3302.132992  	0.091264 
3304.061808  	0.091458 
3305.990624  	0.091807 
3307.919440  	0.092193 
3309.848256  	0.092431 
3311.777072  	0.092732 
3313.705888  	0.092925 
3315.634704  	0.093245 
3317.563520  	0.093558 
3319.492336  	0.093713 
3321.421152  	0.093826 
3323.349968  	0.094061 
3325.278784  	0.094359 
3327.207600  	0.094450 
3329.136416  	0.094315 
3331.065232  	0.094291 
3332.994048  	0.094445 
3334.922864  	0.094539 
3336.851680  	0.094529 
3338.780496  	0.094371 
3340.709312  	0.094325 
3342.638128  	0.094091 
3344.566944  	0.093616 
3346.495760  	0.093497 
3348.424576  	0.093365 
3350.353392  	0.092927 
3352.282208  	0.092610 
3354.211024  	0.092365 
3356.139840  	0.092000 
3358.068656  	0.091729 
3359.997472  	0.091480 
3361.926288  	0.091141 
3363.855104  	0.090790 
3365.783920  	0.090321 
3367.712736  	0.089854 
3369.641552  	0.089523 
3371.570368  	0.088991 
3373.499184  	0.088550 
3375.428000  	0.088151 
3377.356816  	0.087787 
3379.285632  	0.087547 
3381.214448  	0.087225 
3383.143264  	0.086800 
3385.072080  	0.086359 
3387.000896  	0.085914 
3388.929712  	0.085572 
3390.858528  	0.085188 
3392.787344  	0.084777 
3394.716160  	0.084327 
3396.644976  	0.083851 
3398.573792  	0.083308 
3400.502608  	0.082976 
3402.431424  	0.082702 
3404.360240  	0.082310 
3406.289056  	0.081723 
3408.217872  	0.081174 
3410.146688  	0.080742 
3412.075504  	0.080393 
3414.004320  	0.079910 
3415.933136  	0.079494 
3417.861952  	0.078818 
3419.790768  	0.078106 
3421.719584  	0.077605 
3423.648400  	0.077157 
3425.577216  	0.076573 
3427.506032  	0.076147 
3429.434848  	0.075746 
3431.363664  	0.075234 
3433.292480  	0.074672 
3435.221296  	0.074085 
3437.150112  	0.073307 
3439.078928  	0.072756 
3441.007744  	0.072330 
3442.936560  	0.071843 
3444.865376  	0.071154 
3446.794192  	0.070271 
3448.723008  	0.069511 
3450.651824  	0.069000 
3452.580640  	0.068468 
3454.509456  	0.068034 
3456.438272  	0.067311 
3458.367088  	0.066606 
3460.295904  	0.065952 
3462.224720  	0.065110 
3464.153536  	0.064302 
3466.082352  	0.063654 
3468.011168  	0.062788 
3469.939984  	0.062111 
3471.868800  	0.061526 
3473.797616  	0.060743 
3475.726432  	0.059724 
3477.655248  	0.058898 
3479.584064  	0.058406 
3481.512880  	0.057712 
3483.441696  	0.056589 
3485.370512  	0.055922 
3487.299328  	0.054998 
3489.228144  	0.054368 
3491.156960  	0.053682 
3493.085776  	0.052817 
3495.014592  	0.052068 
3496.943408  	0.051481 
3498.872224  	0.050765 
3500.801040  	0.050163 
3502.729856  	0.049232 
3504.658672  	0.048404 
3506.587488  	0.048153 
3508.516304  	0.047596 
3510.445120  	0.046672 
3512.373936  	0.045982 
3514.302752  	0.045308 
3516.231568  	0.044936 
3518.160384  	0.044468 
3520.089200  	0.043873 
3522.018016  	0.043252 
3523.946832  	0.042571 
3525.875648  	0.041990 
3527.804464  	0.041058 
3529.733280  	0.040241 
3531.662096  	0.039811 
3533.590912  	0.039507 
3535.519728  	0.038907 
3537.448544  	0.038048 
3539.377360  	0.037570 
3541.306176  	0.037240 
3543.234992  	0.036856 
3545.163808  	0.036032 
3547.092624  	0.035031 
3549.021440  	0.034480 
3550.950256  	0.034106 
3552.879072  	0.033120 
3554.807888  	0.032487 
3556.736704  	0.032063 
3558.665520  	0.031516 
3560.594336  	0.030759 
3562.523152  	0.030204 
3564.451968  	0.030070 
3566.380784  	0.028956 
3568.309600  	0.027032 
3570.238416  	0.027099 
3572.167232  	0.027247 
3574.096048  	0.026665 
3576.024864  	0.025835 
3577.953680  	0.025074 
3579.882496  	0.024279 
3581.811312  	0.023673 
3583.740128  	0.023291 
3585.668944  	0.022996 
3587.597760  	0.020821 
3589.526576  	0.019470 
3591.455392  	0.019745 
3593.384208  	0.019239 
3595.313024  	0.018074 
3597.241840  	0.017300 
3599.170656  	0.016682 
3601.099472  	0.015785 
3603.028288  	0.015236 
3604.957104  	0.015065 
3606.885920  	0.014367 
3608.814736  	0.012888 
3610.743552  	0.012465 
3612.672368  	0.011538 
3614.601184  	0.010050 
3616.530000  	0.010170 
3618.458816  	0.008570 
3620.387632  	0.006513 
3622.316448  	0.006734 
3624.245264  	0.006830 
3626.174080  	0.006711 
3628.102896  	0.004637 
3630.031712  	0.000638 
3631.960528  	0.002120 
3633.889344  	0.001943 
3635.818160  	0.001189 
3637.746976  	0.000426 
3639.675792  	-0.000241 
3641.604608  	-0.000577 
3643.533424  	-0.000643 
3645.462240  	-0.000617 
3647.391056  	-0.002630 
3649.319872  	-0.006952 
3651.248688  	-0.009317 
3653.177504  	-0.007042 
3655.106320  	-0.006738 
3657.035136  	-0.009676 
3658.963952  	-0.009927 
3660.892768  	-0.009927 
3662.821584  	-0.010089 
3664.750400  	-0.009872 
3666.679216  	-0.009187 
3668.608032  	-0.010221 
3670.536848  	-0.013577 
3672.465664  	-0.011971 
3674.394480  	-0.011713 
3676.323296  	-0.016688 
3678.252112  	-0.014191 
3680.180928  	-0.012764 
3682.109744  	-0.012453 
3684.038560  	-0.012441 
3685.967376  	-0.011571 
3687.896192  	-0.012511 
3689.825008  	-0.015430 
3691.753824  	-0.015517 
3693.682640  	-0.014075 
3695.611456  	-0.013192 
3697.540272  	-0.012348 
3699.469088  	-0.011237 
3701.397904  	-0.011807 
3703.326720  	-0.011890 
3705.255536  	-0.010543 
3707.184352  	-0.009643 
3709.113168  	-0.010039 
3711.041984  	-0.011844 
3712.970800  	-0.012444 
3714.899616  	-0.010754 
3716.828432  	-0.009459 
3718.757248  	-0.009662 
3720.686064  	-0.010013 
3722.614880  	-0.010607 
3724.543696  	-0.010594 
3726.472512  	-0.010951 
3728.401328  	-0.010418 
3730.330144  	-0.009264 
3732.258960  	-0.010022 
3734.187776  	-0.010776 
3736.116592  	-0.012738 
3738.045408  	-0.012075 
3739.974224  	-0.010096 
3741.903040  	-0.008213 
3743.831856  	-0.009229 
3745.760672  	-0.012291 
3747.689488  	-0.009837 
3749.618304  	-0.011144 
3751.547120  	-0.013694 
3753.475936  	-0.013380 
3755.404752  	-0.010971 
3757.333568  	-0.010244 
3759.262384  	-0.011153 
3761.191200  	-0.011538 
3763.120016  	-0.009842 
3765.048832  	-0.010145 
3766.977648  	-0.010126 
3768.906464  	-0.010157 
3770.835280  	-0.011588 
3772.764096  	-0.010727 
3774.692912  	-0.009839 
3776.621728  	-0.009289 
3778.550544  	-0.009795 
3780.479360  	-0.011387 
3782.408176  	-0.010346 
3784.336992  	-0.010178 
3786.265808  	-0.010458 
3788.194624  	-0.010271 
3790.123440  	-0.010185 
3792.052256  	-0.009999 
3793.981072  	-0.009428 
3795.909888  	-0.010067 
3797.838704  	-0.010333 
3799.767520  	-0.009415 
3801.696336  	-0.012563 
3803.625152  	-0.012214 
3805.553968  	-0.010233 
3807.482784  	-0.012128 
3809.411600  	-0.011381 
3811.340416  	-0.010037 
3813.269232  	-0.008850 
3815.198048  	-0.009856 
3817.126864  	-0.011918 
3819.055680  	-0.010103 
3820.984496  	-0.012379 
3822.913312  	-0.013037 
3824.842128  	-0.010483 
3826.770944  	-0.010825 
3828.699760  	-0.010487 
3830.628576  	-0.010063 
3832.557392  	-0.010642 
3834.486208  	-0.010130 
3836.415024  	-0.010256 
3838.343840  	-0.011973 
3840.272656  	-0.012640 
3842.201472  	-0.011690 
3844.130288  	-0.011571 
3846.059104  	-0.010874 
3847.987920  	-0.009759 
3849.916736  	-0.008883 
3851.845552  	-0.008965 
3853.774368  	-0.014545 
3855.703184  	-0.014407 
3857.632000  	-0.011975 
3859.560816  	-0.010407 
3861.489632  	-0.010018 
3863.418448  	-0.010654 
3865.347264  	-0.011612 
3867.276080  	-0.010166 
3869.204896  	-0.010570 
3871.133712  	-0.012190 
3873.062528  	-0.011042 
3874.991344  	-0.012026 
3876.920160  	-0.010508 
3878.848976  	-0.009516 
3880.777792  	-0.011145 
3882.706608  	-0.010586 
3884.635424  	-0.010151 
3886.564240  	-0.011964 
3888.493056  	-0.010406 
3890.421872  	-0.010282 
3892.350688  	-0.011975 
3894.279504  	-0.011331 
3896.208320  	-0.009911 
3898.137136  	-0.009524 
3900.065952  	-0.010503 
3901.994768  	-0.010646 
3903.923584  	-0.011620 
3905.852400  	-0.012272 
3907.781216  	-0.011237 
3909.710032  	-0.010580 
3911.638848  	-0.010477 
3913.567664  	-0.010095 
3915.496480  	-0.009928 
3917.425296  	-0.010790 
3919.354112  	-0.011217 
3921.282928  	-0.010850 
3923.211744  	-0.010213 
3925.140560  	-0.010660 
3927.069376  	-0.010506 
3928.998192  	-0.010147 
3930.927008  	-0.010361 
3932.855824  	-0.010951 
3934.784640  	-0.010903 
3936.713456  	-0.010513 
3938.642272  	-0.010328 
3940.571088  	-0.009930 
3942.499904  	-0.010422 
3944.428720  	-0.010746 
3946.357536  	-0.010119 
3948.286352  	-0.010284 
3950.215168  	-0.010667 
3952.143984  	-0.010611 
3954.072800  	-0.010412 
3956.001616  	-0.010277 
3957.930432  	-0.010393 
3959.859248  	-0.010461 
3961.788064  	-0.010667 
3963.716880  	-0.010944 
3965.645696  	-0.010830 
3967.574512  	-0.010557 
3969.503328  	-0.010405 
3971.432144  	-0.010593 
3973.360960  	-0.010766 
3975.289776  	-0.010888 
3977.218592  	-0.010796 
3979.147408  	-0.010726 
3981.076224  	-0.010721 
3983.005040  	-0.010711 
3984.933856  	-0.010772 
3986.862672  	-0.010794 
3988.791488  	-0.010595 
3990.720304  	-0.010540 
3992.649120  	-0.010743 
3994.577936  	-0.010894 
3996.506752  	-0.010861 
3998.435568  	-0.010682 
4000.364384  	-0.010559 