##TITLE=No Description
##DATA TYPE=INFRARED SPECTRUM
##XUNITS=1/CM
##YUNITS=Abs
399.264912  	0.587703 
401.193728  	0.574889 
403.122544  	0.586346 
405.051360  	0.593110 
406.980176  	0.599161 
408.908992  	0.586179 
410.837808  	0.581359 
412.766624  	0.579148 
414.695440  	0.572486 
416.624256  	0.557237 
418.553072  	0.548177 
420.481888  	0.558804 
422.410704  	0.569969 
424.339520  	0.552968 
426.268336  	0.546708 
428.197152  	0.547811 
430.125968  	0.548953 
432.054784  	0.544576 
433.983600  	0.542063 
435.912416  	0.537734 
437.841232  	0.538060 
439.770048  	0.531546 
441.698864  	0.528426 
443.627680  	0.526551 
445.556496  	0.525343 
447.485312  	0.521412 
449.414128  	0.525686 
451.342944  	0.527243 
453.271760  	0.529842 
455.200576  	0.523791 
457.129392  	0.525431 
459.058208  	0.526262 
460.987024  	0.531940 
462.915840  	0.535974 
464.844656  	0.533346 
466.773472  	0.525463 
468.702288  	0.525313 
470.631104  	0.519997 
472.559920  	0.521713 
474.488736  	0.524869 
476.417552  	0.527323 
478.346368  	0.518945 
480.275184  	0.518645 
482.204000  	0.517366 
484.132816  	0.516348 
486.061632  	0.518423 
487.990448  	0.523224 
489.919264  	0.519439 
491.848080  	0.518448 
493.776896  	0.516336 
495.705712  	0.513528 
497.634528  	0.508197 
499.563344  	0.511140 
501.492160  	0.510613 
503.420976  	0.509241 
505.349792  	0.507798 
507.278608  	0.509420 
509.207424  	0.510256 
511.136240  	0.513469 
513.065056  	0.513464 
514.993872  	0.514807 
516.922688  	0.514195 
518.851504  	0.517133 
520.780320  	0.516870 
522.709136  	0.516618 
524.637952  	0.515124 
526.566768  	0.514269 
528.495584  	0.511981 
530.424400  	0.510147 
532.353216  	0.504599 
534.282032  	0.499784 
536.210848  	0.492516 
538.139664  	0.488557 
540.068480  	0.484039 
541.997296  	0.480383 
543.926112  	0.476114 
545.854928  	0.471392 
547.783744  	0.466868 
549.712560  	0.465364 
551.641376  	0.461698 
553.570192  	0.458357 
555.499008  	0.453959 
557.427824  	0.451159 
559.356640  	0.447363 
561.285456  	0.444243 
563.214272  	0.439993 
565.143088  	0.437153 
567.071904  	0.432866 
569.000720  	0.429392 
570.929536  	0.426051 
572.858352  	0.423953 
574.787168  	0.421140 
576.715984  	0.418216 
578.644800  	0.414800 
580.573616  	0.410910 
582.502432  	0.406192 
584.431248  	0.403153 
586.360064  	0.399664 
588.288880  	0.397176 
590.217696  	0.394649 
592.146512  	0.391857 
594.075328  	0.389251 
596.004144  	0.387223 
597.932960  	0.385143 
599.861776  	0.383679 
601.790592  	0.381433 
603.719408  	0.380439 
605.648224  	0.379198 
607.577040  	0.378238 
609.505856  	0.376567 
611.434672  	0.374923 
613.363488  	0.372473 
615.292304  	0.371378 
617.221120  	0.370214 
619.149936  	0.368162 
621.078752  	0.366071 
623.007568  	0.365840 
624.936384  	0.364358 
626.865200  	0.362661 
628.794016  	0.361432 
630.722832  	0.360648 
632.651648  	0.359646 
634.580464  	0.359837 
636.509280  	0.360531 
638.438096  	0.360594 
640.366912  	0.359475 
642.295728  	0.358102 
644.224544  	0.355482 
646.153360  	0.352872 
648.082176  	0.349032 
650.010992  	0.345191 
651.939808  	0.340952 
653.868624  	0.337801 
655.797440  	0.333855 
657.726256  	0.330247 
659.655072  	0.326454 
661.583888  	0.322500 
663.512704  	0.318483 
665.441520  	0.315136 
667.370336  	0.308341 
669.299152  	0.302813 
671.227968  	0.301753 
673.156784  	0.299177 
675.085600  	0.296214 
677.014416  	0.293928 
678.943232  	0.291877 
680.872048  	0.290161 
682.800864  	0.287920 
684.729680  	0.285848 
686.658496  	0.284385 
688.587312  	0.283790 
690.516128  	0.282697 
692.444944  	0.281586 
694.373760  	0.279995 
696.302576  	0.277640 
698.231392  	0.275215 
700.160208  	0.273118 
702.089024  	0.270848 
704.017840  	0.268617 
705.946656  	0.266129 
707.875472  	0.263800 
709.804288  	0.261908 
711.733104  	0.260159 
713.661920  	0.257908 
715.590736  	0.256466 
717.519552  	0.255693 
719.448368  	0.255775 
721.377184  	0.256554 
723.306000  	0.257586 
725.234816  	0.257966 
727.163632  	0.257245 
729.092448  	0.254953 
731.021264  	0.251550 
732.950080  	0.248369 
734.878896  	0.245740 
736.807712  	0.242540 
738.736528  	0.239943 
740.665344  	0.238044 
742.594160  	0.236578 
744.522976  	0.234811 
746.451792  	0.233121 
748.380608  	0.231400 
750.309424  	0.230391 
752.238240  	0.229468 
754.167056  	0.228852 
756.095872  	0.228037 
758.024688  	0.227121 
759.953504  	0.226604 
761.882320  	0.227351 
763.811136  	0.228356 
765.739952  	0.227056 
767.668768  	0.224369 
769.597584  	0.222054 
771.526400  	0.221000 
773.455216  	0.222384 
775.384032  	0.225828 
777.312848  	0.230819 
779.241664  	0.234582 
781.170480  	0.234972 
783.099296  	0.231807 
785.028112  	0.226427 
786.956928  	0.220408 
788.885744  	0.215589 
790.814560  	0.211906 
792.743376  	0.209284 
794.672192  	0.208212 
796.601008  	0.207898 
798.529824  	0.205138 
800.458640  	0.200418 
802.387456  	0.196527 
804.316272  	0.194716 
806.245088  	0.193892 
808.173904  	0.193102 
810.102720  	0.192612 
812.031536  	0.192587 
813.960352  	0.192882 
815.889168  	0.193297 
817.817984  	0.193792 
819.746800  	0.194178 
821.675616  	0.194146 
823.604432  	0.194023 
825.533248  	0.193558 
827.462064  	0.193286 
829.390880  	0.192712 
831.319696  	0.191892 
833.248512  	0.190084 
835.177328  	0.188124 
837.106144  	0.185480 
839.034960  	0.182290 
840.963776  	0.178512 
842.892592  	0.174883 
844.821408  	0.171526 
846.750224  	0.168428 
848.679040  	0.165721 
850.607856  	0.163464 
852.536672  	0.161859 
854.465488  	0.160242 
856.394304  	0.159010 
858.323120  	0.158011 
860.251936  	0.156381 
862.180752  	0.154132 
864.109568  	0.151674 
866.038384  	0.149307 
867.967200  	0.147179 
869.896016  	0.145515 
871.824832  	0.144495 
873.753648  	0.144485 
875.682464  	0.145096 
877.611280  	0.145860 
879.540096  	0.146901 
881.468912  	0.148929 
883.397728  	0.150540 
885.326544  	0.151720 
887.255360  	0.152061 
889.184176  	0.150926 
891.112992  	0.148945 
893.041808  	0.147350 
894.970624  	0.145045 
896.899440  	0.141562 
898.828256  	0.137190 
900.757072  	0.133086 
902.685888  	0.129786 
904.614704  	0.128011 
906.543520  	0.128120 
908.472336  	0.129579 
910.401152  	0.131939 
912.329968  	0.134806 
914.258784  	0.137830 
916.187600  	0.140823 
918.116416  	0.143292 
920.045232  	0.144923 
921.974048  	0.145768 
923.902864  	0.145942 
925.831680  	0.145569 
927.760496  	0.145507 
929.689312  	0.145877 
931.618128  	0.146614 
933.546944  	0.146989 
935.475760  	0.147195 
937.404576  	0.146986 
939.333392  	0.146431 
941.262208  	0.146378 
943.191024  	0.147703 
945.119840  	0.151229 
947.048656  	0.156956 
948.977472  	0.164843 
950.906288  	0.174403 
952.835104  	0.184917 
954.763920  	0.196318 
956.692736  	0.207253 
958.621552  	0.216596 
960.550368  	0.223037 
962.479184  	0.226184 
964.408000  	0.225180 
966.336816  	0.220349 
968.265632  	0.211802 
970.194448  	0.200569 
972.123264  	0.187675 
974.052080  	0.174117 
975.980896  	0.160504 
977.909712  	0.147921 
979.838528  	0.136894 
981.767344  	0.127631 
983.696160  	0.120644 
985.624976  	0.116139 
987.553792  	0.114543 
989.482608  	0.115783 
991.411424  	0.119363 
993.340240  	0.124609 
995.269056  	0.130804 
997.197872  	0.137731 
999.126688  	0.144800 
1001.055504  	0.152129 
1002.984320  	0.159264 
1004.913136  	0.166276 
1006.841952  	0.172766 
1008.770768  	0.178437 
1010.699584  	0.182681 
1012.628400  	0.185201 
1014.557216  	0.186077 
1016.486032  	0.186225 
1018.414848  	0.185955 
1020.343664  	0.185471 
1022.272480  	0.184776 
1024.201296  	0.183339 
1026.130112  	0.180085 
1028.058928  	0.178978 
1029.987744  	0.182018 
1031.916560  	0.184224 
1033.845376  	0.185679 
1035.774192  	0.187215 
1037.703008  	0.190167 
1039.631824  	0.196901 
1041.560640  	0.205867 
1043.489456  	0.217804 
1045.418272  	0.232592 
1047.347088  	0.249122 
1049.275904  	0.264396 
1051.204720  	0.276773 
1053.133536  	0.284128 
1055.062352  	0.287077 
1056.991168  	0.286610 
1058.919984  	0.287621 
1060.848800  	0.288486 
1062.777616  	0.285905 
1064.706432  	0.279565 
1066.635248  	0.274021 
1068.564064  	0.271675 
1070.492880  	0.266913 
1072.421696  	0.259278 
1074.350512  	0.253693 
1076.279328  	0.251540 
1078.208144  	0.253454 
1080.136960  	0.258096 
1082.065776  	0.263868 
1083.994592  	0.267732 
1085.923408  	0.268851 
1087.852224  	0.266205 
1089.781040  	0.261358 
1091.709856  	0.255173 
1093.638672  	0.246841 
1095.567488  	0.235431 
1097.496304  	0.222847 
1099.425120  	0.209896 
1101.353936  	0.196967 
1103.282752  	0.183975 
1105.211568  	0.171788 
1107.140384  	0.160182 
1109.069200  	0.149134 
1110.998016  	0.139099 
1112.926832  	0.129907 
1114.855648  	0.121381 
1116.784464  	0.113426 
1118.713280  	0.105849 
1120.642096  	0.098653 
1122.570912  	0.092097 
1124.499728  	0.085980 
1126.428544  	0.080367 
1128.357360  	0.075669 
1130.286176  	0.071724 
1132.214992  	0.068158 
1134.143808  	0.065229 
1136.072624  	0.062782 
1138.001440  	0.060633 
1139.930256  	0.058353 
1141.859072  	0.055928 
1143.787888  	0.053375 
1145.716704  	0.051080 
1147.645520  	0.048945 
1149.574336  	0.047265 
1151.503152  	0.045956 
1153.431968  	0.045452 
1155.360784  	0.045528 
1157.289600  	0.046483 
1159.218416  	0.047979 
1161.147232  	0.050093 
1163.076048  	0.052219 
1165.004864  	0.054481 
1166.933680  	0.056780 
1168.862496  	0.059339 
1170.791312  	0.061915 
1172.720128  	0.064948 
1174.648944  	0.067733 
1176.577760  	0.070498 
1178.506576  	0.073282 
1180.435392  	0.076164 
1182.364208  	0.078962 
1184.293024  	0.082080 
1186.221840  	0.085458 
1188.150656  	0.089419 
1190.079472  	0.094027 
1192.008288  	0.099567 
1193.937104  	0.106213 
1195.865920  	0.113865 
1197.794736  	0.122347 
1199.723552  	0.131802 
1201.652368  	0.141513 
1203.581184  	0.151088 
1205.510000  	0.160579 
1207.438816  	0.169675 
1209.367632  	0.178128 
1211.296448  	0.185366 
1213.225264  	0.191435 
1215.154080  	0.195956 
1217.082896  	0.199300 
1219.011712  	0.201370 
1220.940528  	0.203024 
1222.869344  	0.203790 
1224.798160  	0.203822 
1226.726976  	0.202996 
1228.655792  	0.201700 
1230.584608  	0.199829 
1232.513424  	0.197583 
1234.442240  	0.194560 
1236.371056  	0.190829 
1238.299872  	0.185856 
1240.228688  	0.178500 
1242.157504  	0.171036 
1244.086320  	0.164714 
1246.015136  	0.157031 
1247.943952  	0.148709 
1249.872768  	0.140413 
1251.801584  	0.133173 
1253.730400  	0.125790 
1255.659216  	0.118604 
1257.588032  	0.111800 
1259.516848  	0.105497 
1261.445664  	0.099592 
1263.374480  	0.094263 
1265.303296  	0.089663 
1267.232112  	0.085972 
1269.160928  	0.083170 
1271.089744  	0.081138 
1273.018560  	0.080108 
1274.947376  	0.079875 
1276.876192  	0.080052 
1278.805008  	0.079916 
1280.733824  	0.078890 
1282.662640  	0.076879 
1284.591456  	0.074457 
1286.520272  	0.072165 
1288.449088  	0.070592 
1290.377904  	0.069963 
1292.306720  	0.070075 
1294.235536  	0.070029 
1296.164352  	0.068908 
1298.093168  	0.066614 
1300.021984  	0.063577 
1301.950800  	0.060368 
1303.879616  	0.057296 
1305.808432  	0.053996 
1307.737248  	0.050733 
1309.666064  	0.047679 
1311.594880  	0.045189 
1313.523696  	0.043345 
1315.452512  	0.042119 
1317.381328  	0.041432 
1319.310144  	0.041456 
1321.238960  	0.041717 
1323.167776  	0.042466 
1325.096592  	0.043382 
1327.025408  	0.044073 
1328.954224  	0.044115 
1330.883040  	0.043694 
1332.811856  	0.042884 
1334.740672  	0.042168 
1336.669488  	0.041517 
1338.598304  	0.041021 
1340.527120  	0.040264 
1342.455936  	0.039489 
1344.384752  	0.039160 
1346.313568  	0.039273 
1348.242384  	0.039899 
1350.171200  	0.041138 
1352.100016  	0.042579 
1354.028832  	0.044316 
1355.957648  	0.046222 
1357.886464  	0.048217 
1359.815280  	0.050151 
1361.744096  	0.052202 
1363.672912  	0.054133 
1365.601728  	0.055552 
1367.530544  	0.056652 
1369.459360  	0.057130 
1371.388176  	0.056793 
1373.316992  	0.055578 
1375.245808  	0.053031 
1377.174624  	0.050238 
1379.103440  	0.047155 
1381.032256  	0.044244 
1382.961072  	0.042145 
1384.889888  	0.041021 
1386.818704  	0.040238 
1388.747520  	0.038922 
1390.676336  	0.036593 
1392.605152  	0.033129 
1394.533968  	0.031425 
1396.462784  	0.034105 
1398.391600  	0.035239 
1400.320416  	0.035169 
1402.249232  	0.035051 
1404.178048  	0.035494 
1406.106864  	0.036379 
1408.035680  	0.038048 
1409.964496  	0.040302 
1411.893312  	0.043244 
1413.822128  	0.046168 
1415.750944  	0.049148 
1417.679760  	0.051285 
1419.608576  	0.052610 
1421.537392  	0.052950 
1423.466208  	0.052554 
1425.395024  	0.051105 
1427.323840  	0.049468 
1429.252656  	0.047390 
1431.181472  	0.045747 
1433.110288  	0.045111 
1435.039104  	0.045358 
1436.967920  	0.045969 
1438.896736  	0.046854 
1440.825552  	0.047419 
1442.754368  	0.047973 
1444.683184  	0.048121 
1446.612000  	0.048068 
1448.540816  	0.047503 
1450.469632  	0.047755 
1452.398448  	0.048258 
1454.327264  	0.048809 
1456.256080  	0.048924 
1458.184896  	0.048965 
1460.113712  	0.049182 
1462.042528  	0.049580 
1463.971344  	0.049654 
1465.900160  	0.050712 
1467.828976  	0.052554 
1469.757792  	0.055173 
1471.686608  	0.058683 
1473.615424  	0.065347 
1475.544240  	0.071111 
1477.473056  	0.076609 
1479.401872  	0.080277 
1481.330688  	0.083500 
1483.259504  	0.085636 
1485.188320  	0.086921 
1487.117136  	0.087033 
1489.045952  	0.086606 
1490.974768  	0.084138 
1492.903584  	0.081406 
1494.832400  	0.077831 
1496.761216  	0.072381 
1498.690032  	0.066585 
1500.618848  	0.061810 
1502.547664  	0.057553 
1504.476480  	0.053914 
1506.405296  	0.049330 
1508.334112  	0.046058 
1510.262928  	0.044664 
1512.191744  	0.042829 
1514.120560  	0.041677 
1516.049376  	0.041464 
1517.978192  	0.041844 
1519.907008  	0.042965 
1521.835824  	0.045371 
1523.764640  	0.048690 
1525.693456  	0.051695 
1527.622272  	0.053995 
1529.551088  	0.054632 
1531.479904  	0.053935 
1533.408720  	0.051184 
1535.337536  	0.048088 
1537.266352  	0.045769 
1539.195168  	0.041501 
1541.123984  	0.036617 
1543.052800  	0.035677 
1544.981616  	0.034538 
1546.910432  	0.033686 
1548.839248  	0.033408 
1550.768064  	0.033672 
1552.696880  	0.033769 
1554.625696  	0.034838 
1556.554512  	0.035412 
1558.483328  	0.036609 
1560.412144  	0.041503 
1562.340960  	0.045172 
1564.269776  	0.048429 
1566.198592  	0.053561 
1568.127408  	0.057658 
1570.056224  	0.064220 
1571.985040  	0.070348 
1573.913856  	0.074441 
1575.842672  	0.077110 
1577.771488  	0.080194 
1579.700304  	0.080578 
1581.629120  	0.080023 
1583.557936  	0.079352 
1585.486752  	0.080323 
1587.415568  	0.082524 
1589.344384  	0.086814 
1591.273200  	0.092623 
1593.202016  	0.099934 
1595.130832  	0.107491 
1597.059648  	0.115488 
1598.988464  	0.122158 
1600.917280  	0.128106 
1602.846096  	0.132054 
1604.774912  	0.134698 
1606.703728  	0.134811 
1608.632544  	0.134081 
1610.561360  	0.132144 
1612.490176  	0.130514 
1614.418992  	0.128315 
1616.347808  	0.127324 
1618.276624  	0.128770 
1620.205440  	0.131691 
1622.134256  	0.134601 
1624.063072  	0.141357 
1625.991888  	0.147632 
1627.920704  	0.155829 
1629.849520  	0.165512 
1631.778336  	0.174272 
1633.707152  	0.180890 
1635.635968  	0.190831 
1637.564784  	0.201057 
1639.493600  	0.207232 
1641.422416  	0.212046 
1643.351232  	0.215736 
1645.280048  	0.216646 
1647.208864  	0.218240 
1649.137680  	0.218830 
1651.066496  	0.217746 
1652.995312  	0.213751 
1654.924128  	0.212892 
1656.852944  	0.210785 
1658.781760  	0.207827 
1660.710576  	0.204027 
1662.639392  	0.199671 
1664.568208  	0.195501 
1666.497024  	0.191861 
1668.425840  	0.186917 
1670.354656  	0.181492 
1672.283472  	0.177453 
1674.212288  	0.173677 
1676.141104  	0.169851 
1678.069920  	0.168064 
1679.998736  	0.166363 
1681.927552  	0.164815 
1683.856368  	0.162392 
1685.785184  	0.162416 
1687.714000  	0.162161 
1689.642816  	0.161221 
1691.571632  	0.159665 
1693.500448  	0.158019 
1695.429264  	0.154927 
1697.358080  	0.152587 
1699.286896  	0.149715 
1701.215712  	0.146015 
1703.144528  	0.143754 
1705.073344  	0.139614 
1707.002160  	0.134205 
1708.930976  	0.129114 
1710.859792  	0.122788 
1712.788608  	0.115731 
1714.717424  	0.107626 
1716.646240  	0.098044 
1718.575056  	0.086184 
1720.503872  	0.077264 
1722.432688  	0.069620 
1724.361504  	0.060496 
1726.290320  	0.053005 
1728.219136  	0.046482 
1730.147952  	0.040794 
1732.076768  	0.035922 
1734.005584  	0.030784 
1735.934400  	0.026166 
1737.863216  	0.024773 
1739.792032  	0.022024 
1741.720848  	0.020274 
1743.649664  	0.018804 
1745.578480  	0.017920 
1747.507296  	0.016539 
1749.436112  	0.015569 
1751.364928  	0.014460 
1753.293744  	0.013954 
1755.222560  	0.013268 
1757.151376  	0.012742 
1759.080192  	0.011953 
1761.009008  	0.011514 
1762.937824  	0.010692 
1764.866640  	0.010639 
1766.795456  	0.010318 
1768.724272  	0.010193 
1770.653088  	0.009193 
1772.581904  	0.008291 
1774.510720  	0.008185 
1776.439536  	0.008615 
1778.368352  	0.008480 
1780.297168  	0.008327 
1782.225984  	0.007878 
1784.154800  	0.007956 
1786.083616  	0.007672 
1788.012432  	0.007779 
1789.941248  	0.007622 
1791.870064  	0.007279 
1793.798880  	0.006697 
1795.727696  	0.007128 
1797.656512  	0.006598 
1799.585328  	0.006525 
1801.514144  	0.006560 
1803.442960  	0.006516 
1805.371776  	0.006205 
1807.300592  	0.006315 
1809.229408  	0.006004 
1811.158224  	0.005809 
1813.087040  	0.005505 
1815.015856  	0.005719 
1816.944672  	0.005634 
1818.873488  	0.005673 
1820.802304  	0.005500 
1822.731120  	0.005813 
1824.659936  	0.005364 
1826.588752  	0.005169 
1828.517568  	0.004904 
1830.446384  	0.005215 
1832.375200  	0.005247 
1834.304016  	0.005336 
1836.232832  	0.005381 
1838.161648  	0.005522 
1840.090464  	0.005140 
1842.019280  	0.005285 
1843.948096  	0.004804 
1845.876912  	0.005047 
1847.805728  	0.005046 
1849.734544  	0.005085 
1851.663360  	0.004926 
1853.592176  	0.004962 
1855.520992  	0.004856 
1857.449808  	0.005160 
1859.378624  	0.004883 
1861.307440  	0.004900 
1863.236256  	0.004615 
1865.165072  	0.004828 
1867.093888  	0.004973 
1869.022704  	0.005052 
1870.951520  	0.004457 
1872.880336  	0.004570 
1874.809152  	0.004362 
1876.737968  	0.004541 
1878.666784  	0.004254 
1880.595600  	0.004556 
1882.524416  	0.004298 
1884.453232  	0.004369 
1886.382048  	0.004299 
1888.310864  	0.004502 
1890.239680  	0.004169 
1892.168496  	0.004296 
1894.097312  	0.004247 
1896.026128  	0.004616 
1897.954944  	0.004076 
1899.883760  	0.003943 
1901.812576  	0.003762 
1903.741392  	0.003803 
1905.670208  	0.003597 
1907.599024  	0.003821 
1909.527840  	0.004170 
1911.456656  	0.004754 
1913.385472  	0.004548 
1915.314288  	0.004696 
1917.243104  	0.004069 
1919.171920  	0.004056 
1921.100736  	0.003832 
1923.029552  	0.003923 
1924.958368  	0.003845 
1926.887184  	0.004058 
1928.816000  	0.003725 
1930.744816  	0.004097 
1932.673632  	0.003982 
1934.602448  	0.004405 
1936.531264  	0.004427 
1938.460080  	0.004846 
1940.388896  	0.004947 
1942.317712  	0.005151 
1944.246528  	0.004388 
1946.175344  	0.004804 
1948.104160  	0.004578 
1950.032976  	0.004251 
1951.961792  	0.003991 
1953.890608  	0.004462 
1955.819424  	0.003318 
1957.748240  	0.003634 
1959.677056  	0.004065 
1961.605872  	0.004600 
1963.534688  	0.004330 
1965.463504  	0.004792 
1967.392320  	0.004079 
1969.321136  	0.004456 
1971.249952  	0.004699 
1973.178768  	0.005481 
1975.107584  	0.004320 
1977.036400  	0.005289 
1978.965216  	0.006327 
1980.894032  	0.006127 
1982.822848  	0.005436 
1984.751664  	0.005929 
1986.680480  	0.005196 
1988.609296  	0.005223 
1990.538112  	0.004432 
1992.466928  	0.004808 
1994.395744  	0.004353 
1996.324560  	0.004886 
1998.253376  	0.004234 
2000.182192  	0.003226 
2002.111008  	0.003135 
2004.039824  	0.004448 
2005.968640  	0.004361 
2007.897456  	0.005311 
2009.826272  	0.005084 
2011.755088  	0.005358 
2013.683904  	0.005170 
2015.612720  	0.005531 
2017.541536  	0.004233 
2019.470352  	0.004053 
2021.399168  	0.003428 
2023.327984  	0.003986 
2025.256800  	0.004618 
2027.185616  	0.005141 
2029.114432  	0.004615 
2031.043248  	0.005622 
2032.972064  	0.006014 
2034.900880  	0.006847 
2036.829696  	0.006064 
2038.758512  	0.006048 
2040.687328  	0.004859 
2042.616144  	0.005114 
2044.544960  	0.005112 
2046.473776  	0.006110 
2048.402592  	0.006511 
2050.331408  	0.006438 
2052.260224  	0.004988 
2054.189040  	0.004802 
2056.117856  	0.004478 
2058.046672  	0.004435 
2059.975488  	0.004027 
2061.904304  	0.004199 
2063.833120  	0.004201 
2065.761936  	0.004187 
2067.690752  	0.003768 
2069.619568  	0.004098 
2071.548384  	0.004385 
2073.477200  	0.004581 
2075.406016  	0.004669 
2077.334832  	0.004948 
2079.263648  	0.004458 
2081.192464  	0.004515 
2083.121280  	0.004328 
2085.050096  	0.004315 
2086.978912  	0.004327 
2088.907728  	0.004500 
2090.836544  	0.004049 
2092.765360  	0.004290 
2094.694176  	0.004833 
2096.622992  	0.004838 
2098.551808  	0.004560 
2100.480624  	0.005091 
2102.409440  	0.004899 
2104.338256  	0.004782 
2106.267072  	0.004926 
2108.195888  	0.005365 
2110.124704  	0.005144 
2112.053520  	0.004934 
2113.982336  	0.004536 
2115.911152  	0.004725 
2117.839968  	0.004921 
2119.768784  	0.004736 
2121.697600  	0.004097 
2123.626416  	0.004515 
2125.555232  	0.004120 
2127.484048  	0.003818 
2129.412864  	0.003725 
2131.341680  	0.004037 
2133.270496  	0.004370 
2135.199312  	0.005202 
2137.128128  	0.005574 
2139.056944  	0.005542 
2140.985760  	0.004980 
2142.914576  	0.005360 
2144.843392  	0.005914 
2146.772208  	0.006218 
2148.701024  	0.004923 
2150.629840  	0.005306 
2152.558656  	0.004942 
2154.487472  	0.004479 
2156.416288  	0.004634 
2158.345104  	0.006040 
2160.273920  	0.008616 
2162.202736  	0.009829 
2164.131552  	0.008786 
2166.060368  	0.008464 
2167.989184  	0.008094 
2169.918000  	0.008079 
2171.846816  	0.006485 
2173.775632  	0.006273 
2175.704448  	0.006972 
2177.633264  	0.006984 
2179.562080  	0.006280 
2181.490896  	0.006922 
2183.419712  	0.006519 
2185.348528  	0.006475 
2187.277344  	0.006176 
2189.206160  	0.005899 
2191.134976  	0.005678 
2193.063792  	0.006196 
2194.992608  	0.005752 
2196.921424  	0.005470 
2198.850240  	0.005072 
2200.779056  	0.005651 
2202.707872  	0.005748 
2204.636688  	0.005969 
2206.565504  	0.005848 
2208.494320  	0.005946 
2210.423136  	0.005666 
2212.351952  	0.005382 
2214.280768  	0.004943 
2216.209584  	0.005279 
2218.138400  	0.004416 
2220.067216  	0.004476 
2221.996032  	0.005101 
2223.924848  	0.005849 
2225.853664  	0.006308 
2227.782480  	0.006592 
2229.711296  	0.005578 
2231.640112  	0.004591 
2233.568928  	0.004316 
2235.497744  	0.004960 
2237.426560  	0.004509 
2239.355376  	0.004595 
2241.284192  	0.004588 
2243.213008  	0.004951 
2245.141824  	0.004844 
2247.070640  	0.005114 
2248.999456  	0.005211 
2250.928272  	0.004756 
2252.857088  	0.004001 
2254.785904  	0.004199 
2256.714720  	0.004194 
2258.643536  	0.004283 
2260.572352  	0.003906 
2262.501168  	0.003553 
2264.429984  	0.003388 
2266.358800  	0.003547 
2268.287616  	0.003661 
2270.216432  	0.004100 
2272.145248  	0.004200 
2274.074064  	0.004142 
2276.002880  	0.004233 
2277.931696  	0.004628 
2279.860512  	0.004508 
2281.789328  	0.004589 
2283.718144  	0.004598 
2285.646960  	0.004892 
2287.575776  	0.005063 
2289.504592  	0.004743 
2291.433408  	0.004152 
2293.362224  	0.004024 
2295.291040  	0.004257 
2297.219856  	0.004283 
2299.148672  	0.003918 
2301.077488  	0.003909 
2303.006304  	0.003948 
2304.935120  	0.003982 
2306.863936  	0.003908 
2308.792752  	0.003880 
2310.721568  	0.003291 
2312.650384  	0.002869 
2314.579200  	0.002547 
2316.508016  	0.002040 
2318.436832  	0.001483 
2320.365648  	0.000963 
2322.294464  	0.000256 
2324.223280  	-0.000431 
2326.152096  	-0.001722 
2328.080912  	-0.002779 
2330.009728  	-0.003948 
2331.938544  	-0.004959 
2333.867360  	-0.005264 
2335.796176  	-0.005551 
2337.724992  	-0.006238 
2339.653808  	-0.006206 
2341.582624  	-0.006459 
2343.511440  	-0.006408 
2345.440256  	-0.004995 
2347.369072  	-0.002256 
2349.297888  	-0.001215 
2351.226704  	-0.002859 
2353.155520  	-0.005523 
2355.084336  	-0.007305 
2357.013152  	-0.008894 
2358.941968  	-0.010064 
2360.870784  	-0.010809 
2362.799600  	-0.010205 
2364.728416  	-0.009682 
2366.657232  	-0.008381 
2368.586048  	-0.006554 
2370.514864  	-0.004903 
2372.443680  	-0.003428 
2374.372496  	-0.001555 
2376.301312  	0.000291 
2378.230128  	0.001652 
2380.158944  	0.002487 
2382.087760  	0.003054 
2384.016576  	0.003291 
2385.945392  	0.003420 
2387.874208  	0.003358 
2389.803024  	0.003193 
2391.731840  	0.003094 
2393.660656  	0.003191 
2395.589472  	0.003301 
2397.518288  	0.003557 
2399.447104  	0.003418 
2401.375920  	0.003316 
2403.304736  	0.003089 
2405.233552  	0.003103 
2407.162368  	0.003145 
2409.091184  	0.003200 
2411.020000  	0.003261 
2412.948816  	0.003435 
2414.877632  	0.003468 
2416.806448  	0.003588 
2418.735264  	0.003398 
2420.664080  	0.003386 
2422.592896  	0.003460 
2424.521712  	0.003617 
2426.450528  	0.003493 
2428.379344  	0.003534 
2430.308160  	0.003578 
2432.236976  	0.003624 
2434.165792  	0.003577 
2436.094608  	0.003607 
2438.023424  	0.003832 
2439.952240  	0.004158 
2441.881056  	0.004073 
2443.809872  	0.003745 
2445.738688  	0.003655 
2447.667504  	0.003955 
2449.596320  	0.004032 
2451.525136  	0.004212 
2453.453952  	0.004282 
2455.382768  	0.004122 
2457.311584  	0.004116 
2459.240400  	0.004243 
2461.169216  	0.004177 
2463.098032  	0.003955 
2465.026848  	0.003962 
2466.955664  	0.004119 
2468.884480  	0.003840 
2470.813296  	0.003723 
2472.742112  	0.003904 
2474.670928  	0.004123 
2476.599744  	0.004148 
2478.528560  	0.004184 
2480.457376  	0.004232 
2482.386192  	0.004190 
2484.315008  	0.004116 
2486.243824  	0.003970 
2488.172640  	0.004066 
2490.101456  	0.004510 
2492.030272  	0.004525 
2493.959088  	0.004481 
2495.887904  	0.004399 
2497.816720  	0.004583 
2499.745536  	0.004645 
2501.674352  	0.004605 
2503.603168  	0.004774 
2505.531984  	0.004836 
2507.460800  	0.004662 
2509.389616  	0.004895 
2511.318432  	0.005111 
2513.247248  	0.005060 
2515.176064  	0.004936 
2517.104880  	0.004874 
2519.033696  	0.004863 
2520.962512  	0.005091 
2522.891328  	0.005179 
2524.820144  	0.005025 
2526.748960  	0.005096 
2528.677776  	0.005430 
2530.606592  	0.005334 
2532.535408  	0.005240 
2534.464224  	0.005196 
2536.393040  	0.005275 
2538.321856  	0.005595 
2540.250672  	0.005949 
2542.179488  	0.005818 
2544.108304  	0.005748 
2546.037120  	0.005917 
2547.965936  	0.006008 
2549.894752  	0.005809 
2551.823568  	0.005632 
2553.752384  	0.005687 
2555.681200  	0.006044 
2557.610016  	0.006152 
2559.538832  	0.006244 
2561.467648  	0.006445 
2563.396464  	0.006460 
2565.325280  	0.006512 
2567.254096  	0.006603 
2569.182912  	0.006649 
2571.111728  	0.006801 
2573.040544  	0.006785 
2574.969360  	0.006687 
2576.898176  	0.006877 
2578.826992  	0.007010 
2580.755808  	0.007134 
2582.684624  	0.007382 
2584.613440  	0.007364 
2586.542256  	0.007423 
2588.471072  	0.007615 
2590.399888  	0.007703 
2592.328704  	0.007576 
2594.257520  	0.007527 
2596.186336  	0.007609 
2598.115152  	0.007729 
2600.043968  	0.007665 
2601.972784  	0.007768 
2603.901600  	0.007814 
2605.830416  	0.008010 
2607.759232  	0.008124 
2609.688048  	0.008168 
2611.616864  	0.008383 
2613.545680  	0.008540 
2615.474496  	0.008635 
2617.403312  	0.008661 
2619.332128  	0.008626 
2621.260944  	0.008582 
2623.189760  	0.008611 
2625.118576  	0.008820 
2627.047392  	0.008876 
2628.976208  	0.009010 
2630.905024  	0.009189 
2632.833840  	0.009352 
2634.762656  	0.009454 
2636.691472  	0.009514 
2638.620288  	0.009671 
2640.549104  	0.009827 
2642.477920  	0.009881 
2644.406736  	0.010053 
2646.335552  	0.010210 
2648.264368  	0.010310 
2650.193184  	0.010336 
2652.122000  	0.010439 
2654.050816  	0.010675 
2655.979632  	0.010810 
2657.908448  	0.010847 
2659.837264  	0.010931 
2661.766080  	0.010911 
2663.694896  	0.011005 
2665.623712  	0.011077 
2667.552528  	0.011160 
2669.481344  	0.011300 
2671.410160  	0.011374 
2673.338976  	0.011428 
2675.267792  	0.011645 
2677.196608  	0.011860 
2679.125424  	0.011878 
2681.054240  	0.011937 
2682.983056  	0.012201 
2684.911872  	0.012277 
2686.840688  	0.012302 
2688.769504  	0.012385 
2690.698320  	0.012495 
2692.627136  	0.012487 
2694.555952  	0.012627 
2696.484768  	0.012795 
2698.413584  	0.012817 
2700.342400  	0.012932 
2702.271216  	0.013202 
2704.200032  	0.013408 
2706.128848  	0.013428 
2708.057664  	0.013436 
2709.986480  	0.013563 
2711.915296  	0.013679 
2713.844112  	0.013907 
2715.772928  	0.013953 
2717.701744  	0.014036 
2719.630560  	0.014185 
2721.559376  	0.014278 
2723.488192  	0.014426 
2725.417008  	0.014594 
2727.345824  	0.014732 
2729.274640  	0.014893 
2731.203456  	0.014996 
2733.132272  	0.015103 
2735.061088  	0.015220 
2736.989904  	0.015368 
2738.918720  	0.015395 
2740.847536  	0.015458 
2742.776352  	0.015528 
2744.705168  	0.015627 
2746.633984  	0.015669 
2748.562800  	0.015692 
2750.491616  	0.015733 
2752.420432  	0.015892 
2754.349248  	0.015948 
2756.278064  	0.015962 
2758.206880  	0.015907 
2760.135696  	0.015935 
2762.064512  	0.016042 
2763.993328  	0.016095 
2765.922144  	0.016067 
2767.850960  	0.016124 
2769.779776  	0.016134 
2771.708592  	0.016169 
2773.637408  	0.016107 
2775.566224  	0.016026 
2777.495040  	0.016040 
2779.423856  	0.016125 
2781.352672  	0.016142 
2783.281488  	0.016091 
2785.210304  	0.016012 
2787.139120  	0.015989 
2789.067936  	0.015986 
2790.996752  	0.016059 
2792.925568  	0.015972 
2794.854384  	0.015837 
2796.783200  	0.015790 
2798.712016  	0.015734 
2800.640832  	0.015655 
2802.569648  	0.015717 
2804.498464  	0.015871 
2806.427280  	0.015905 
2808.356096  	0.015889 
2810.284912  	0.015935 
2812.213728  	0.015884 
2814.142544  	0.015841 
2816.071360  	0.015916 
2818.000176  	0.015793 
2819.928992  	0.015542 
2821.857808  	0.015493 
2823.786624  	0.015484 
2825.715440  	0.015386 
2827.644256  	0.015212 
2829.573072  	0.015042 
2831.501888  	0.014816 
2833.430704  	0.014522 
2835.359520  	0.014172 
2837.288336  	0.013868 
2839.217152  	0.013555 
2841.145968  	0.013174 
2843.074784  	0.012791 
2845.003600  	0.012347 
2846.932416  	0.011857 
2848.861232  	0.011477 
2850.790048  	0.011084 
2852.718864  	0.010628 
2854.647680  	0.010155 
2856.576496  	0.009613 
2858.505312  	0.009073 
2860.434128  	0.008609 
2862.362944  	0.007888 
2864.291760  	0.007071 
2866.220576  	0.006577 
2868.149392  	0.006294 
2870.078208  	0.006072 
2872.007024  	0.006011 
2873.935840  	0.006172 
2875.864656  	0.006228 
2877.793472  	0.006079 
2879.722288  	0.005988 
2881.651104  	0.005683 
2883.579920  	0.005499 
2885.508736  	0.005721 
2887.437552  	0.006034 
2889.366368  	0.006060 
2891.295184  	0.005801 
2893.224000  	0.005661 
2895.152816  	0.005732 
2897.081632  	0.005353 
2899.010448  	0.003571 
2900.939264  	0.002044 
2902.868080  	0.003211 
2904.796896  	0.004506 
2906.725712  	0.005113 
2908.654528  	0.005769 
2910.583344  	0.006155 
2912.512160  	0.006647 
2914.440976  	0.007772 
2916.369792  	0.008618 
2918.298608  	0.009095 
2920.227424  	0.009617 
2922.156240  	0.010334 
2924.085056  	0.011210 
2926.013872  	0.012274 
2927.942688  	0.013301 
2929.871504  	0.014196 
2931.800320  	0.015104 
2933.729136  	0.015937 
2935.657952  	0.016637 
2937.586768  	0.017385 
2939.515584  	0.018084 
2941.444400  	0.018467 
2943.373216  	0.018496 
2945.302032  	0.018669 
2947.230848  	0.018912 
2949.159664  	0.018777 
2951.088480  	0.018300 
2953.017296  	0.017740 
2954.946112  	0.017101 
2956.874928  	0.016457 
2958.803744  	0.015697 
2960.732560  	0.014947 
2962.661376  	0.014304 
2964.590192  	0.013498 
2966.519008  	0.012361 
2968.447824  	0.011279 
2970.376640  	0.010396 
2972.305456  	0.009888 
2974.234272  	0.010145 
2976.163088  	0.010447 
2978.091904  	0.010352 
2980.020720  	0.010411 
2981.949536  	0.010690 
2983.878352  	0.010600 
2985.807168  	0.009688 
2987.735984  	0.008744 
2989.664800  	0.009107 
2991.593616  	0.012159 
2993.522432  	0.014127 
2995.451248  	0.014704 
2997.380064  	0.015589 
2999.308880  	0.016856 
3001.237696  	0.018245 
3003.166512  	0.019727 
3005.095328  	0.021110 
3007.024144  	0.022351 
3008.952960  	0.023680 
3010.881776  	0.025122 
3012.810592  	0.026578 
3014.739408  	0.027738 
3016.668224  	0.028847 
3018.597040  	0.030191 
3020.525856  	0.031432 
3022.454672  	0.032562 
3024.383488  	0.033649 
3026.312304  	0.034606 
3028.241120  	0.035552 
3030.169936  	0.036598 
3032.098752  	0.037578 
3034.027568  	0.038374 
3035.956384  	0.039193 
3037.885200  	0.040106 
3039.814016  	0.040863 
3041.742832  	0.041465 
3043.671648  	0.042071 
3045.600464  	0.042758 
3047.529280  	0.043326 
3049.458096  	0.043985 
3051.386912  	0.044685 
3053.315728  	0.045239 
3055.244544  	0.045893 
3057.173360  	0.046661 
3059.102176  	0.047285 
3061.030992  	0.047912 
3062.959808  	0.048654 
3064.888624  	0.049437 
3066.817440  	0.050329 
3068.746256  	0.051264 
3070.675072  	0.052032 
3072.603888  	0.052672 
3074.532704  	0.053432 
3076.461520  	0.054257 
3078.390336  	0.055002 
3080.319152  	0.055790 
3082.247968  	0.056733 
3084.176784  	0.057537 
3086.105600  	0.058290 
3088.034416  	0.059206 
3089.963232  	0.060014 
3091.892048  	0.060620 
3093.820864  	0.061309 
3095.749680  	0.062085 
3097.678496  	0.063088 
3099.607312  	0.064116 
3101.536128  	0.065135 
3103.464944  	0.066077 
3105.393760  	0.066779 
3107.322576  	0.067558 
3109.251392  	0.068369 
3111.180208  	0.069140 
3113.109024  	0.069922 
3115.037840  	0.070720 
3116.966656  	0.071471 
3118.895472  	0.072083 
3120.824288  	0.072708 
3122.753104  	0.073398 
3124.681920  	0.074019 
3126.610736  	0.074503 
3128.539552  	0.075321 
3130.468368  	0.076090 
3132.397184  	0.076565 
3134.326000  	0.077366 
3136.254816  	0.077968 
3138.183632  	0.078442 
3140.112448  	0.079156 
3142.041264  	0.079702 
3143.970080  	0.080258 
3145.898896  	0.081061 
3147.827712  	0.081833 
3149.756528  	0.082433 
3151.685344  	0.082910 
3153.614160  	0.083524 
3155.542976  	0.084184 
3157.471792  	0.084884 
3159.400608  	0.085650 
3161.329424  	0.086268 
3163.258240  	0.086678 
3165.187056  	0.087217 
3167.115872  	0.087915 
3169.044688  	0.088442 
3170.973504  	0.089005 
3172.902320  	0.089502 
3174.831136  	0.089991 
3176.759952  	0.090528 
3178.688768  	0.090938 
3180.617584  	0.091077 
3182.546400  	0.091378 
3184.475216  	0.091578 
3186.404032  	0.091635 
3188.332848  	0.091873 
3190.261664  	0.092140 
3192.190480  	0.092440 
3194.119296  	0.092514 
3196.048112  	0.092602 
3197.976928  	0.092525 
3199.905744  	0.092382 
3201.834560  	0.092165 
3203.763376  	0.092130 
3205.692192  	0.092096 
3207.621008  	0.091980 
3209.549824  	0.091922 
3211.478640  	0.091911 
3213.407456  	0.091849 
3215.336272  	0.091668 
3217.265088  	0.091480 
3219.193904  	0.091348 
3221.122720  	0.091264 
3223.051536  	0.091204 
3224.980352  	0.091038 
3226.909168  	0.090801 
3228.837984  	0.090602 
3230.766800  	0.090567 
3232.695616  	0.090724 
3234.624432  	0.090514 
3236.553248  	0.090146 
3238.482064  	0.090118 
3240.410880  	0.090145 
3242.339696  	0.090262 
3244.268512  	0.090213 
3246.197328  	0.090343 
3248.126144  	0.090649 
3250.054960  	0.090829 
3251.983776  	0.090975 
3253.912592  	0.091078 
3255.841408  	0.091217 
3257.770224  	0.091574 
3259.699040  	0.092042 
3261.627856  	0.092428 
3263.556672  	0.092478 
3265.485488  	0.092441 
3267.414304  	0.092584 
3269.343120  	0.092910 
3271.271936  	0.093117 
3273.200752  	0.093173 
3275.129568  	0.093453 
3277.058384  	0.093889 
3278.987200  	0.094124 
3280.916016  	0.094217 
3282.844832  	0.094287 
3284.773648  	0.094520 
3286.702464  	0.094797 
3288.631280  	0.095077 
3290.560096  	0.095495 
3292.488912  	0.095952 
3294.417728  	0.096162 
3296.346544  	0.096409 
3298.275360  	0.096649 
3300.204176  	0.096960 
3302.132992  	0.097333 
3304.061808  	0.097565 
3305.990624  	0.098008 
3307.919440  	0.098385 
3309.848256  	0.098726 
3311.777072  	0.099122 
3313.705888  	0.099314 
3315.634704  	0.099736 
3317.563520  	0.100098 
3319.492336  	0.100383 
3321.421152  	0.100493 
3323.349968  	0.100638 
3325.278784  	0.100914 
3327.207600  	0.101045 
3329.136416  	0.100953 
3331.065232  	0.101057 
3332.994048  	0.101270 
3334.922864  	0.101522 
3336.851680  	0.101591 
3338.780496  	0.101384 
3340.709312  	0.101180 
3342.638128  	0.101108 
3344.566944  	0.100810 
3346.495760  	0.100526 
3348.424576  	0.100164 
3350.353392  	0.099773 
3352.282208  	0.099474 
3354.211024  	0.099167 
3356.139840  	0.099046 
3358.068656  	0.098923 
3359.997472  	0.098493 
3361.926288  	0.097871 
3363.855104  	0.097510 
3365.783920  	0.097145 
3367.712736  	0.096606 
3369.641552  	0.096197 
3371.570368  	0.095855 
3373.499184  	0.095520 
3375.428000  	0.094939 
3377.356816  	0.094449 
3379.285632  	0.094289 
3381.214448  	0.093995 
3383.143264  	0.093642 
3385.072080  	0.093216 
3387.000896  	0.092757 
3388.929712  	0.092384 
3390.858528  	0.091863 
3392.787344  	0.091387 
3394.716160  	0.090956 
3396.644976  	0.090675 
3398.573792  	0.090143 
3400.502608  	0.089739 
3402.431424  	0.089326 
3404.360240  	0.088792 
3406.289056  	0.088133 
3408.217872  	0.087720 
3410.146688  	0.087351 
3412.075504  	0.086792 
3414.004320  	0.086205 
3415.933136  	0.085755 
3417.861952  	0.085096 
3419.790768  	0.084501 
3421.719584  	0.084165 
3423.648400  	0.083769 
3425.577216  	0.083169 
3427.506032  	0.082599 
3429.434848  	0.081952 
3431.363664  	0.081370 
3433.292480  	0.080653 
3435.221296  	0.080037 
3437.150112  	0.079482 
3439.078928  	0.078942 
3441.007744  	0.078465 
3442.936560  	0.077894 
3444.865376  	0.077199 
3446.794192  	0.076555 
3448.723008  	0.075910 
3450.651824  	0.075124 
3452.580640  	0.074499 
3454.509456  	0.074010 
3456.438272  	0.073299 
3458.367088  	0.072536 
3460.295904  	0.071784 
3462.224720  	0.070959 
3464.153536  	0.070176 
3466.082352  	0.069335 
3468.011168  	0.068398 
3469.939984  	0.067643 
3471.868800  	0.066998 
3473.797616  	0.066242 
3475.726432  	0.065484 
3477.655248  	0.064597 
3479.584064  	0.063822 
3481.512880  	0.063048 
3483.441696  	0.062205 
3485.370512  	0.061474 
3487.299328  	0.060514 
3489.228144  	0.059732 
3491.156960  	0.058890 
3493.085776  	0.058061 
3495.014592  	0.057270 
3496.943408  	0.056631 
3498.872224  	0.055949 
3500.801040  	0.055358 
3502.729856  	0.054626 
3504.658672  	0.053794 
3506.587488  	0.053154 
3508.516304  	0.052542 
3510.445120  	0.051837 
3512.373936  	0.051054 
3514.302752  	0.050456 
3516.231568  	0.049866 
3518.160384  	0.049197 
3520.089200  	0.048484 
3522.018016  	0.047913 
3523.946832  	0.047417 
3525.875648  	0.046770 
3527.804464  	0.046004 
3529.733280  	0.045180 
3531.662096  	0.044527 
3533.590912  	0.043928 
3535.519728  	0.043510 
3537.448544  	0.043178 
3539.377360  	0.042375 
3541.306176  	0.041466 
3543.234992  	0.041051 
3545.163808  	0.040931 
3547.092624  	0.040218 
3549.021440  	0.039135 
3550.950256  	0.038605 
3552.879072  	0.038020 
3554.807888  	0.037175 
3556.736704  	0.036431 
3558.665520  	0.035889 
3560.594336  	0.035160 
3562.523152  	0.034334 
3564.451968  	0.033856 
3566.380784  	0.033571 
3568.309600  	0.032823 
3570.238416  	0.032066 
3572.167232  	0.031402 
3574.096048  	0.030683 
3576.024864  	0.029832 
3577.953680  	0.029048 
3579.882496  	0.028320 
3581.811312  	0.027640 
3583.740128  	0.026725 
3585.668944  	0.026344 
3587.597760  	0.026004 
3589.526576  	0.025087 
3591.455392  	0.023916 
3593.384208  	0.023164 
3595.313024  	0.022468 
3597.241840  	0.021577 
3599.170656  	0.020585 
3601.099472  	0.019921 
3603.028288  	0.019247 
3604.957104  	0.018395 
3606.885920  	0.017507 
3608.814736  	0.016835 
3610.743552  	0.016324 
3612.672368  	0.015484 
3614.601184  	0.014366 
3616.530000  	0.013642 
3618.458816  	0.012480 
3620.387632  	0.011469 
3622.316448  	0.010667 
3624.245264  	0.009753 
3626.174080  	0.009157 
3628.102896  	0.008039 
3630.031712  	0.006362 
3631.960528  	0.006300 
3633.889344  	0.005601 
3635.818160  	0.004503 
3637.746976  	0.003535 
3639.675792  	0.002924 
3641.604608  	0.002351 
3643.533424  	0.001575 
3645.462240  	0.000750 
3647.391056  	-0.000599 
3649.319872  	-0.002478 
3651.248688  	-0.003710 
3653.177504  	-0.003611 
3655.106320  	-0.004307 
3657.035136  	-0.005906 
3658.963952  	-0.006258 
3660.892768  	-0.006723 
3662.821584  	-0.007217 
3664.750400  	-0.007428 
3666.679216  	-0.007605 
3668.608032  	-0.008458 
3670.536848  	-0.009563 
3672.465664  	-0.009250 
3674.394480  	-0.009938 
3676.323296  	-0.011492 
3678.252112  	-0.010077 
3680.180928  	-0.009384 
3682.109744  	-0.009625 
3684.038560  	-0.010073 
3685.967376  	-0.010188 
3687.896192  	-0.010942 
3689.825008  	-0.011569 
3691.753824  	-0.011001 
3693.682640  	-0.010421 
3695.611456  	-0.010080 
3697.540272  	-0.009477 
3699.469088  	-0.008935 
3701.397904  	-0.008714 
3703.326720  	-0.008494 
3705.255536  	-0.008084 
3707.184352  	-0.007864 
3709.113168  	-0.008130 
3711.041984  	-0.008616 
3712.970800  	-0.008035 
3714.899616  	-0.007176 
3716.828432  	-0.006870 
3718.757248  	-0.007031 
3720.686064  	-0.007446 
3722.614880  	-0.007542 
3724.543696  	-0.007287 
3726.472512  	-0.007303 
3728.401328  	-0.007244 
3730.330144  	-0.007457 
3732.258960  	-0.007850 
3734.187776  	-0.007727 
3736.116592  	-0.008187 
3738.045408  	-0.007865 
3739.974224  	-0.007191 
3741.903040  	-0.006889 
3743.831856  	-0.007169 
3745.760672  	-0.007558 
3747.689488  	-0.007113 
3749.618304  	-0.007911 
3751.547120  	-0.008373 
3753.475936  	-0.007887 
3755.404752  	-0.007456 
3757.333568  	-0.007278 
3759.262384  	-0.007545 
3761.191200  	-0.007571 
3763.120016  	-0.006997 
3765.048832  	-0.007080 
3766.977648  	-0.007050 
3768.906464  	-0.007314 
3770.835280  	-0.007598 
3772.764096  	-0.007112 
3774.692912  	-0.006849 
3776.621728  	-0.006853 
3778.550544  	-0.007293 
3780.479360  	-0.007719 
3782.408176  	-0.007289 
3784.336992  	-0.007173 
3786.265808  	-0.007141 
3788.194624  	-0.007145 
3790.123440  	-0.007348 
3792.052256  	-0.007338 
3793.981072  	-0.007288 
3795.909888  	-0.007584 
3797.838704  	-0.007554 
3799.767520  	-0.007620 
3801.696336  	-0.008647 
3803.625152  	-0.008186 
3805.553968  	-0.007749 
3807.482784  	-0.008198 
3809.411600  	-0.007693 
3811.340416  	-0.007380 
3813.269232  	-0.007168 
3815.198048  	-0.007762 
3817.126864  	-0.008452 
3819.055680  	-0.008028 
3820.984496  	-0.008804 
3822.913312  	-0.008460 
3824.842128  	-0.007620 
3826.770944  	-0.007787 
3828.699760  	-0.007624 
3830.628576  	-0.007672 
3832.557392  	-0.007908 
3834.486208  	-0.007910 
3836.415024  	-0.008174 
3838.343840  	-0.008434 
3840.272656  	-0.008225 
3842.201472  	-0.007594 
3844.130288  	-0.007643 
3846.059104  	-0.007479 
3847.987920  	-0.007175 
3849.916736  	-0.007173 
3851.845552  	-0.007701 
3853.774368  	-0.009181 
3855.703184  	-0.008516 
3857.632000  	-0.007724 
3859.560816  	-0.007359 
3861.489632  	-0.007358 
3863.418448  	-0.007595 
3865.347264  	-0.007686 
3867.276080  	-0.007432 
3869.204896  	-0.007822 
3871.133712  	-0.008004 
3873.062528  	-0.007874 
3874.991344  	-0.007923 
3876.920160  	-0.007314 
3878.848976  	-0.007103 
3880.777792  	-0.007418 
3882.706608  	-0.007199 
3884.635424  	-0.007195 
3886.564240  	-0.007714 
3888.493056  	-0.007497 
3890.421872  	-0.007682 
3892.350688  	-0.008033 
3894.279504  	-0.007692 
3896.208320  	-0.007397 
3898.137136  	-0.007155 
3900.065952  	-0.007098 
3901.994768  	-0.006869 
3903.923584  	-0.007134 
3905.852400  	-0.007531 
3907.781216  	-0.007285 
3909.710032  	-0.007147 
3911.638848  	-0.007334 
3913.567664  	-0.007372 
3915.496480  	-0.007137 
3917.425296  	-0.007219 
3919.354112  	-0.007363 
3921.282928  	-0.007216 
3923.211744  	-0.007063 
3925.140560  	-0.007149 
3927.069376  	-0.007244 
3928.998192  	-0.007211 
3930.927008  	-0.007128 
3932.855824  	-0.007095 
3934.784640  	-0.007214 
3936.713456  	-0.007258 
3938.642272  	-0.007162 
3940.571088  	-0.007001 
3942.499904  	-0.007025 
3944.428720  	-0.007185 
3946.357536  	-0.006988 
3948.286352  	-0.006926 
3950.215168  	-0.007137 
3952.143984  	-0.007351 
3954.072800  	-0.007404 
3956.001616  	-0.007229 
3957.930432  	-0.007238 
3959.859248  	-0.007305 
3961.788064  	-0.007248 
3963.716880  	-0.007390 
3965.645696  	-0.007529 
3967.574512  	-0.007437 
3969.503328  	-0.007439 
3971.432144  	-0.007481 
3973.360960  	-0.007410 
3975.289776  	-0.007472 
3977.218592  	-0.007413 
3979.147408  	-0.007297 
3981.076224  	-0.007396 
3983.005040  	-0.007444 
3984.933856  	-0.007367 
3986.862672  	-0.007432 
3988.791488  	-0.007420 
3990.720304  	-0.007359 
3992.649120  	-0.007421 
3994.577936  	-0.007575 
3996.506752  	-0.007543 
3998.435568  	-0.007496 
4000.364384  	-0.007442 