##TITLE=No Description
##DATA TYPE=INFRARED SPECTRUM
##XUNITS=1/CM
##YUNITS=Abs
399.264912  	0.548902 
401.193728  	0.564225 
403.122544  	0.586681 
405.051360  	0.584714 
406.980176  	0.571098 
408.908992  	0.557026 
410.837808  	0.569789 
412.766624  	0.569253 
414.695440  	0.556210 
416.624256  	0.542642 
418.553072  	0.552175 
420.481888  	0.551129 
422.410704  	0.554911 
424.339520  	0.557599 
426.268336  	0.548892 
428.197152  	0.531055 
430.125968  	0.526533 
432.054784  	0.524761 
433.983600  	0.528808 
435.912416  	0.525228 
437.841232  	0.524507 
439.770048  	0.519568 
441.698864  	0.513824 
443.627680  	0.515955 
445.556496  	0.523084 
447.485312  	0.521027 
449.414128  	0.522816 
451.342944  	0.515799 
453.271760  	0.511877 
455.200576  	0.512212 
457.129392  	0.518088 
459.058208  	0.511225 
460.987024  	0.510885 
462.915840  	0.513736 
464.844656  	0.520883 
466.773472  	0.522353 
468.702288  	0.519652 
470.631104  	0.514545 
472.559920  	0.512431 
474.488736  	0.510063 
476.417552  	0.512453 
478.346368  	0.511642 
480.275184  	0.509661 
482.204000  	0.503124 
484.132816  	0.505026 
486.061632  	0.506212 
487.990448  	0.503918 
489.919264  	0.497275 
491.848080  	0.500433 
493.776896  	0.504532 
495.705712  	0.503023 
497.634528  	0.500165 
499.563344  	0.501578 
501.492160  	0.497183 
503.420976  	0.494877 
505.349792  	0.490549 
507.278608  	0.491296 
509.207424  	0.492056 
511.136240  	0.496820 
513.065056  	0.498819 
514.993872  	0.501694 
516.922688  	0.502906 
518.851504  	0.504516 
520.780320  	0.500978 
522.709136  	0.502478 
524.637952  	0.503124 
526.566768  	0.501371 
528.495584  	0.497970 
530.424400  	0.496027 
532.353216  	0.490826 
534.282032  	0.486733 
536.210848  	0.481435 
538.139664  	0.477057 
540.068480  	0.472415 
541.997296  	0.467776 
543.926112  	0.462415 
545.854928  	0.459173 
547.783744  	0.454443 
549.712560  	0.452806 
551.641376  	0.448638 
553.570192  	0.444814 
555.499008  	0.441517 
557.427824  	0.438774 
559.356640  	0.433399 
561.285456  	0.430532 
563.214272  	0.427643 
565.143088  	0.424605 
567.071904  	0.420343 
569.000720  	0.416296 
570.929536  	0.412846 
572.858352  	0.411253 
574.787168  	0.409123 
576.715984  	0.407352 
578.644800  	0.403144 
580.573616  	0.398269 
582.502432  	0.392990 
584.431248  	0.389990 
586.360064  	0.387492 
588.288880  	0.386027 
590.217696  	0.383560 
592.146512  	0.380760 
594.075328  	0.377610 
596.004144  	0.375976 
597.932960  	0.373818 
599.861776  	0.372089 
601.790592  	0.369557 
603.719408  	0.368296 
605.648224  	0.367881 
607.577040  	0.367050 
609.505856  	0.364750 
611.434672  	0.363150 
613.363488  	0.361487 
615.292304  	0.360784 
617.221120  	0.359067 
619.149936  	0.357250 
621.078752  	0.355371 
623.007568  	0.354546 
624.936384  	0.352728 
626.865200  	0.351056 
628.794016  	0.349986 
630.722832  	0.349902 
632.651648  	0.349461 
634.580464  	0.349500 
636.509280  	0.349393 
638.438096  	0.349311 
640.366912  	0.348537 
642.295728  	0.347181 
644.224544  	0.344367 
646.153360  	0.341616 
648.082176  	0.337913 
650.010992  	0.334539 
651.939808  	0.331123 
653.868624  	0.327073 
655.797440  	0.323196 
657.726256  	0.319939 
659.655072  	0.316059 
661.583888  	0.312090 
663.512704  	0.307879 
665.441520  	0.304995 
667.370336  	0.299816 
669.299152  	0.293118 
671.227968  	0.291476 
673.156784  	0.289461 
675.085600  	0.287108 
677.014416  	0.284416 
678.943232  	0.281683 
680.872048  	0.280169 
682.800864  	0.278578 
684.729680  	0.276898 
686.658496  	0.275378 
688.587312  	0.274091 
690.516128  	0.272439 
692.444944  	0.271126 
694.373760  	0.270156 
696.302576  	0.268622 
698.231392  	0.266153 
700.160208  	0.263739 
702.089024  	0.261461 
704.017840  	0.259160 
705.946656  	0.256535 
707.875472  	0.254462 
709.804288  	0.252493 
711.733104  	0.250595 
713.661920  	0.248620 
715.590736  	0.247588 
717.519552  	0.247250 
719.448368  	0.247467 
721.377184  	0.247924 
723.306000  	0.248189 
725.234816  	0.248287 
727.163632  	0.248111 
729.092448  	0.245961 
731.021264  	0.242668 
732.950080  	0.239717 
734.878896  	0.236804 
736.807712  	0.233477 
738.736528  	0.230871 
740.665344  	0.228929 
742.594160  	0.227343 
744.522976  	0.226099 
746.451792  	0.224822 
748.380608  	0.223151 
750.309424  	0.221555 
752.238240  	0.220307 
754.167056  	0.219681 
756.095872  	0.218832 
758.024688  	0.218067 
759.953504  	0.217867 
761.882320  	0.218431 
763.811136  	0.218862 
765.739952  	0.218150 
767.668768  	0.215728 
769.597584  	0.213234 
771.526400  	0.212084 
773.455216  	0.213278 
775.384032  	0.216602 
777.312848  	0.221501 
779.241664  	0.225791 
781.170480  	0.226252 
783.099296  	0.222564 
785.028112  	0.216893 
786.956928  	0.211337 
788.885744  	0.206899 
790.814560  	0.203420 
792.743376  	0.200765 
794.672192  	0.199405 
796.601008  	0.198630 
798.529824  	0.195906 
800.458640  	0.191702 
802.387456  	0.188101 
804.316272  	0.185943 
806.245088  	0.184832 
808.173904  	0.184128 
810.102720  	0.183557 
812.031536  	0.183578 
813.960352  	0.184113 
815.889168  	0.184439 
817.817984  	0.184810 
819.746800  	0.185319 
821.675616  	0.185796 
823.604432  	0.185836 
825.533248  	0.185425 
827.462064  	0.185079 
829.390880  	0.184270 
831.319696  	0.182913 
833.248512  	0.180950 
835.177328  	0.178814 
837.106144  	0.176246 
839.034960  	0.173318 
840.963776  	0.169865 
842.892592  	0.166135 
844.821408  	0.162704 
846.750224  	0.159967 
848.679040  	0.157707 
850.607856  	0.155633 
852.536672  	0.154011 
854.465488  	0.152414 
856.394304  	0.150739 
858.323120  	0.149484 
860.251936  	0.147836 
862.180752  	0.145706 
864.109568  	0.143351 
866.038384  	0.140979 
867.967200  	0.139034 
869.896016  	0.137423 
871.824832  	0.136364 
873.753648  	0.136239 
875.682464  	0.136721 
877.611280  	0.137359 
879.540096  	0.138324 
881.468912  	0.140290 
883.397728  	0.141759 
885.326544  	0.142873 
887.255360  	0.143241 
889.184176  	0.142224 
891.112992  	0.140357 
893.041808  	0.138895 
894.970624  	0.136596 
896.899440  	0.133027 
898.828256  	0.128751 
900.757072  	0.124960 
902.685888  	0.121855 
904.614704  	0.120128 
906.543520  	0.120256 
908.472336  	0.121609 
910.401152  	0.124005 
912.329968  	0.126744 
914.258784  	0.129773 
916.187600  	0.132632 
918.116416  	0.134820 
920.045232  	0.136360 
921.974048  	0.137169 
923.902864  	0.137518 
925.831680  	0.137447 
927.760496  	0.137558 
929.689312  	0.137829 
931.618128  	0.138406 
933.546944  	0.138988 
935.475760  	0.139300 
937.404576  	0.139047 
939.333392  	0.138371 
941.262208  	0.138376 
943.191024  	0.139685 
945.119840  	0.143139 
947.048656  	0.148931 
948.977472  	0.156483 
950.906288  	0.165604 
952.835104  	0.175856 
954.763920  	0.186924 
956.692736  	0.197458 
958.621552  	0.206380 
960.550368  	0.212595 
962.479184  	0.215422 
964.408000  	0.214327 
966.336816  	0.209638 
968.265632  	0.201518 
970.194448  	0.190825 
972.123264  	0.178137 
974.052080  	0.165000 
975.980896  	0.152133 
977.909712  	0.139859 
979.838528  	0.129107 
981.767344  	0.120340 
983.696160  	0.113590 
985.624976  	0.109253 
987.553792  	0.107698 
989.482608  	0.108855 
991.411424  	0.112241 
993.340240  	0.117192 
995.269056  	0.123027 
997.197872  	0.129653 
999.126688  	0.136480 
1001.055504  	0.143296 
1002.984320  	0.149991 
1004.913136  	0.156487 
1006.841952  	0.162618 
1008.770768  	0.167901 
1010.699584  	0.171774 
1012.628400  	0.174014 
1014.557216  	0.174822 
1016.486032  	0.174885 
1018.414848  	0.174303 
1020.343664  	0.173758 
1022.272480  	0.173023 
1024.201296  	0.171711 
1026.130112  	0.168693 
1028.058928  	0.167531 
1029.987744  	0.170328 
1031.916560  	0.172424 
1033.845376  	0.173779 
1035.774192  	0.175023 
1037.703008  	0.177779 
1039.631824  	0.184099 
1041.560640  	0.192977 
1043.489456  	0.204733 
1045.418272  	0.218813 
1047.347088  	0.234305 
1049.275904  	0.248418 
1051.204720  	0.259422 
1053.133536  	0.266207 
1055.062352  	0.268987 
1056.991168  	0.268400 
1058.919984  	0.269366 
1060.848800  	0.269951 
1062.777616  	0.267226 
1064.706432  	0.261434 
1066.635248  	0.256332 
1068.564064  	0.254433 
1070.492880  	0.249875 
1072.421696  	0.242535 
1074.350512  	0.237209 
1076.279328  	0.235272 
1078.208144  	0.237311 
1080.136960  	0.242148 
1082.065776  	0.247922 
1083.994592  	0.251839 
1085.923408  	0.252838 
1087.852224  	0.250140 
1089.781040  	0.245963 
1091.709856  	0.240600 
1093.638672  	0.232255 
1095.567488  	0.221454 
1097.496304  	0.209452 
1099.425120  	0.197025 
1101.353936  	0.185007 
1103.282752  	0.173000 
1105.211568  	0.161249 
1107.140384  	0.149971 
1109.069200  	0.139437 
1110.998016  	0.129719 
1112.926832  	0.121038 
1114.855648  	0.113095 
1116.784464  	0.105539 
1118.713280  	0.098318 
1120.642096  	0.091620 
1122.570912  	0.085480 
1124.499728  	0.079713 
1126.428544  	0.074493 
1128.357360  	0.069835 
1130.286176  	0.066037 
1132.214992  	0.062713 
1134.143808  	0.059940 
1136.072624  	0.057545 
1138.001440  	0.055634 
1139.930256  	0.053488 
1141.859072  	0.051149 
1143.787888  	0.048748 
1145.716704  	0.046613 
1147.645520  	0.044576 
1149.574336  	0.043010 
1151.503152  	0.041748 
1153.431968  	0.041271 
1155.360784  	0.041444 
1157.289600  	0.042165 
1159.218416  	0.043265 
1161.147232  	0.045294 
1163.076048  	0.047356 
1165.004864  	0.049561 
1166.933680  	0.051714 
1168.862496  	0.054012 
1170.791312  	0.056499 
1172.720128  	0.059417 
1174.648944  	0.062158 
1176.577760  	0.064890 
1178.506576  	0.067452 
1180.435392  	0.070035 
1182.364208  	0.072632 
1184.293024  	0.075675 
1186.221840  	0.078870 
1188.150656  	0.082552 
1190.079472  	0.086673 
1192.008288  	0.091864 
1193.937104  	0.098151 
1195.865920  	0.105440 
1197.794736  	0.113512 
1199.723552  	0.122302 
1201.652368  	0.131500 
1203.581184  	0.140675 
1205.510000  	0.149247 
1207.438816  	0.157546 
1209.367632  	0.165630 
1211.296448  	0.172429 
1213.225264  	0.177729 
1215.154080  	0.181893 
1217.082896  	0.185058 
1219.011712  	0.186965 
1220.940528  	0.188431 
1222.869344  	0.189251 
1224.798160  	0.189240 
1226.726976  	0.188547 
1228.655792  	0.187474 
1230.584608  	0.185709 
1232.513424  	0.183610 
1234.442240  	0.180962 
1236.371056  	0.177408 
1238.299872  	0.172610 
1240.228688  	0.165858 
1242.157504  	0.158934 
1244.086320  	0.152912 
1246.015136  	0.145663 
1247.943952  	0.137726 
1249.872768  	0.129833 
1251.801584  	0.122964 
1253.730400  	0.115992 
1255.659216  	0.109186 
1257.588032  	0.102822 
1259.516848  	0.096867 
1261.445664  	0.091329 
1263.374480  	0.086328 
1265.303296  	0.082072 
1267.232112  	0.078685 
1269.160928  	0.076062 
1271.089744  	0.074160 
1273.018560  	0.073173 
1274.947376  	0.073026 
1276.876192  	0.073202 
1278.805008  	0.073008 
1280.733824  	0.072021 
1282.662640  	0.070241 
1284.591456  	0.067945 
1286.520272  	0.065706 
1288.449088  	0.064337 
1290.377904  	0.063851 
1292.306720  	0.063909 
1294.235536  	0.063883 
1296.164352  	0.062851 
1298.093168  	0.060664 
1300.021984  	0.057896 
1301.950800  	0.054919 
1303.879616  	0.052008 
1305.808432  	0.048864 
1307.737248  	0.045754 
1309.666064  	0.042787 
1311.594880  	0.040474 
1313.523696  	0.038668 
1315.452512  	0.037589 
1317.381328  	0.036932 
1319.310144  	0.036825 
1321.238960  	0.037008 
1323.167776  	0.037809 
1325.096592  	0.038694 
1327.025408  	0.039341 
1328.954224  	0.039377 
1330.883040  	0.038976 
1332.811856  	0.038208 
1334.740672  	0.037543 
1336.669488  	0.036996 
1338.598304  	0.036490 
1340.527120  	0.035469 
1342.455936  	0.034738 
1344.384752  	0.034535 
1346.313568  	0.034768 
1348.242384  	0.035333 
1350.171200  	0.036441 
1352.100016  	0.037806 
1354.028832  	0.039513 
1355.957648  	0.041200 
1357.886464  	0.043166 
1359.815280  	0.045368 
1361.744096  	0.047206 
1363.672912  	0.048296 
1365.601728  	0.049727 
1367.530544  	0.050980 
1369.459360  	0.051227 
1371.388176  	0.051111 
1373.316992  	0.049923 
1375.245808  	0.046971 
1377.174624  	0.044466 
1379.103440  	0.041634 
1381.032256  	0.038976 
1382.961072  	0.037085 
1384.889888  	0.036326 
1386.818704  	0.035320 
1388.747520  	0.033699 
1390.676336  	0.031809 
1392.605152  	0.028831 
1394.533968  	0.026892 
1396.462784  	0.029332 
1398.391600  	0.030529 
1400.320416  	0.030013 
1402.249232  	0.030253 
1404.178048  	0.030652 
1406.106864  	0.031181 
1408.035680  	0.032974 
1409.964496  	0.035202 
1411.893312  	0.037885 
1413.822128  	0.040842 
1415.750944  	0.044108 
1417.679760  	0.046314 
1419.608576  	0.046387 
1421.537392  	0.046894 
1423.466208  	0.046967 
1425.395024  	0.045341 
1427.323840  	0.044303 
1429.252656  	0.042199 
1431.181472  	0.040359 
1433.110288  	0.040100 
1435.039104  	0.040823 
1436.967920  	0.040220 
1438.896736  	0.041015 
1440.825552  	0.042163 
1442.754368  	0.042811 
1444.683184  	0.043097 
1446.612000  	0.043155 
1448.540816  	0.042169 
1450.469632  	0.042404 
1452.398448  	0.043078 
1454.327264  	0.044428 
1456.256080  	0.044579 
1458.184896  	0.042185 
1460.113712  	0.042799 
1462.042528  	0.044326 
1463.971344  	0.044582 
1465.900160  	0.044698 
1467.828976  	0.046739 
1469.757792  	0.049998 
1471.686608  	0.053272 
1473.615424  	0.057988 
1475.544240  	0.063471 
1477.473056  	0.068652 
1479.401872  	0.072541 
1481.330688  	0.075537 
1483.259504  	0.077580 
1485.188320  	0.079269 
1487.117136  	0.079402 
1489.045952  	0.078419 
1490.974768  	0.075304 
1492.903584  	0.073642 
1494.832400  	0.071165 
1496.761216  	0.065240 
1498.690032  	0.059227 
1500.618848  	0.055059 
1502.547664  	0.051901 
1504.476480  	0.049605 
1506.405296  	0.044109 
1508.334112  	0.038783 
1510.262928  	0.038618 
1512.191744  	0.037573 
1514.120560  	0.037019 
1516.049376  	0.036807 
1517.978192  	0.036622 
1519.907008  	0.038536 
1521.835824  	0.039596 
1523.764640  	0.042828 
1525.693456  	0.045985 
1527.622272  	0.047786 
1529.551088  	0.048782 
1531.479904  	0.048834 
1533.408720  	0.045394 
1535.337536  	0.042167 
1537.266352  	0.041648 
1539.195168  	0.037380 
1541.123984  	0.030903 
1543.052800  	0.030453 
1544.981616  	0.029322 
1546.910432  	0.028915 
1548.839248  	0.029274 
1550.768064  	0.029191 
1552.696880  	0.029768 
1554.625696  	0.030842 
1556.554512  	0.032551 
1558.483328  	0.032795 
1560.412144  	0.033681 
1562.340960  	0.039192 
1564.269776  	0.043049 
1566.198592  	0.047898 
1568.127408  	0.052245 
1570.056224  	0.057064 
1571.985040  	0.062851 
1573.913856  	0.067820 
1575.842672  	0.069594 
1577.771488  	0.071310 
1579.700304  	0.072501 
1581.629120  	0.072170 
1583.557936  	0.071589 
1585.486752  	0.072390 
1587.415568  	0.074479 
1589.344384  	0.078614 
1591.273200  	0.084049 
1593.202016  	0.090767 
1595.130832  	0.097810 
1597.059648  	0.105231 
1598.988464  	0.111585 
1600.917280  	0.117212 
1602.846096  	0.120826 
1604.774912  	0.123089 
1606.703728  	0.123314 
1608.632544  	0.122476 
1610.561360  	0.120473 
1612.490176  	0.119177 
1614.418992  	0.118100 
1616.347808  	0.116322 
1618.276624  	0.116178 
1620.205440  	0.120028 
1622.134256  	0.123177 
1624.063072  	0.128284 
1625.991888  	0.134630 
1627.920704  	0.142176 
1629.849520  	0.150727 
1631.778336  	0.159740 
1633.707152  	0.166892 
1635.635968  	0.174316 
1637.564784  	0.182377 
1639.493600  	0.189283 
1641.422416  	0.194182 
1643.351232  	0.198366 
1645.280048  	0.199771 
1647.208864  	0.199173 
1649.137680  	0.199762 
1651.066496  	0.201425 
1652.995312  	0.195866 
1654.924128  	0.192437 
1656.852944  	0.192596 
1658.781760  	0.190866 
1660.710576  	0.187894 
1662.639392  	0.183294 
1664.568208  	0.178987 
1666.497024  	0.176981 
1668.425840  	0.172492 
1670.354656  	0.165929 
1672.283472  	0.162599 
1674.212288  	0.159961 
1676.141104  	0.154855 
1678.069920  	0.153646 
1679.998736  	0.152594 
1681.927552  	0.151944 
1683.856368  	0.148508 
1685.785184  	0.146517 
1687.714000  	0.147858 
1689.642816  	0.147388 
1691.571632  	0.146253 
1693.500448  	0.145917 
1695.429264  	0.142826 
1697.358080  	0.139965 
1699.286896  	0.138267 
1701.215712  	0.132363 
1703.144528  	0.131664 
1705.073344  	0.128328 
1707.002160  	0.122642 
1708.930976  	0.118414 
1710.859792  	0.112973 
1712.788608  	0.106952 
1714.717424  	0.099664 
1716.646240  	0.090080 
1718.575056  	0.076927 
1720.503872  	0.069202 
1722.432688  	0.062936 
1724.361504  	0.054394 
1726.290320  	0.047475 
1728.219136  	0.041573 
1730.147952  	0.036194 
1732.076768  	0.032162 
1734.005584  	0.026260 
1735.934400  	0.021171 
1737.863216  	0.021228 
1739.792032  	0.018171 
1741.720848  	0.016495 
1743.649664  	0.015318 
1745.578480  	0.014632 
1747.507296  	0.013409 
1749.436112  	0.012398 
1751.364928  	0.010882 
1753.293744  	0.010545 
1755.222560  	0.010504 
1757.151376  	0.009615 
1759.080192  	0.009178 
1761.009008  	0.008866 
1762.937824  	0.007337 
1764.866640  	0.007657 
1766.795456  	0.007866 
1768.724272  	0.007561 
1770.653088  	0.006807 
1772.581904  	0.004983 
1774.510720  	0.004821 
1776.439536  	0.005762 
1778.368352  	0.005930 
1780.297168  	0.005648 
1782.225984  	0.005124 
1784.154800  	0.005348 
1786.083616  	0.004763 
1788.012432  	0.005218 
1789.941248  	0.005564 
1791.870064  	0.004676 
1793.798880  	0.003248 
1795.727696  	0.004049 
1797.656512  	0.003995 
1799.585328  	0.004039 
1801.514144  	0.003671 
1803.442960  	0.003804 
1805.371776  	0.003695 
1807.300592  	0.003917 
1809.229408  	0.003614 
1811.158224  	0.003204 
1813.087040  	0.002737 
1815.015856  	0.003114 
1816.944672  	0.003113 
1818.873488  	0.003224 
1820.802304  	0.003182 
1822.731120  	0.003827 
1824.659936  	0.003283 
1826.588752  	0.002857 
1828.517568  	0.002786 
1830.446384  	0.002483 
1832.375200  	0.002451 
1834.304016  	0.002872 
1836.232832  	0.002852 
1838.161648  	0.002922 
1840.090464  	0.002665 
1842.019280  	0.003430 
1843.948096  	0.002695 
1845.876912  	0.002303 
1847.805728  	0.002403 
1849.734544  	0.002557 
1851.663360  	0.002541 
1853.592176  	0.002629 
1855.520992  	0.002705 
1857.449808  	0.002828 
1859.378624  	0.002342 
1861.307440  	0.002278 
1863.236256  	0.002261 
1865.165072  	0.002725 
1867.093888  	0.002704 
1869.022704  	0.002156 
1870.951520  	0.001714 
1872.880336  	0.002228 
1874.809152  	0.002166 
1876.737968  	0.002292 
1878.666784  	0.002015 
1880.595600  	0.002293 
1882.524416  	0.001989 
1884.453232  	0.002137 
1886.382048  	0.002010 
1888.310864  	0.002261 
1890.239680  	0.001627 
1892.168496  	0.001953 
1894.097312  	0.002050 
1896.026128  	0.002087 
1897.954944  	0.001810 
1899.883760  	0.002035 
1901.812576  	0.001787 
1903.741392  	0.001670 
1905.670208  	0.001557 
1907.599024  	0.002021 
1909.527840  	0.001859 
1911.456656  	0.001986 
1913.385472  	0.001782 
1915.314288  	0.002492 
1917.243104  	0.002298 
1919.171920  	0.001728 
1921.100736  	0.001751 
1923.029552  	0.002157 
1924.958368  	0.001897 
1926.887184  	0.002207 
1928.816000  	0.001752 
1930.744816  	0.001929 
1932.673632  	0.001443 
1934.602448  	0.001479 
1936.531264  	0.001603 
1938.460080  	0.002116 
1940.388896  	0.001556 
1942.317712  	0.001461 
1944.246528  	0.001092 
1946.175344  	0.001852 
1948.104160  	0.001782 
1950.032976  	0.002304 
1951.961792  	0.002107 
1953.890608  	0.002453 
1955.819424  	0.001766 
1957.748240  	0.002294 
1959.677056  	0.001873 
1961.605872  	0.002476 
1963.534688  	0.002375 
1965.463504  	0.002270 
1967.392320  	0.001414 
1969.321136  	0.002101 
1971.249952  	0.002040 
1973.178768  	0.003058 
1975.107584  	0.002611 
1977.036400  	0.003823 
1978.965216  	0.004649 
1980.894032  	0.003983 
1982.822848  	0.002857 
1984.751664  	0.003371 
1986.680480  	0.002734 
1988.609296  	0.003077 
1990.538112  	0.002468 
1992.466928  	0.002799 
1994.395744  	0.001935 
1996.324560  	0.001941 
1998.253376  	0.001611 
2000.182192  	0.001591 
2002.111008  	0.001512 
2004.039824  	0.002402 
2005.968640  	0.001845 
2007.897456  	0.001909 
2009.826272  	0.001745 
2011.755088  	0.002690 
2013.683904  	0.002064 
2015.612720  	0.002476 
2017.541536  	0.001894 
2019.470352  	0.002079 
2021.399168  	0.000790 
2023.327984  	0.000979 
2025.256800  	0.002521 
2027.185616  	0.004207 
2029.114432  	0.003939 
2031.043248  	0.004246 
2032.972064  	0.003326 
2034.900880  	0.002961 
2036.829696  	0.002439 
2038.758512  	0.002929 
2040.687328  	0.002438 
2042.616144  	0.002616 
2044.544960  	0.002272 
2046.473776  	0.003092 
2048.402592  	0.002914 
2050.331408  	0.002981 
2052.260224  	0.001703 
2054.189040  	0.001597 
2056.117856  	0.001346 
2058.046672  	0.001413 
2059.975488  	0.001418 
2061.904304  	0.001940 
2063.833120  	0.001803 
2065.761936  	0.001876 
2067.690752  	0.001635 
2069.619568  	0.001889 
2071.548384  	0.001979 
2073.477200  	0.001891 
2075.406016  	0.001918 
2077.334832  	0.002271 
2079.263648  	0.002134 
2081.192464  	0.002715 
2083.121280  	0.002574 
2085.050096  	0.002256 
2086.978912  	0.002221 
2088.907728  	0.002536 
2090.836544  	0.002055 
2092.765360  	0.002142 
2094.694176  	0.002258 
2096.622992  	0.002482 
2098.551808  	0.002224 
2100.480624  	0.002241 
2102.409440  	0.002047 
2104.338256  	0.002228 
2106.267072  	0.002598 
2108.195888  	0.002874 
2110.124704  	0.002524 
2112.053520  	0.002517 
2113.982336  	0.002242 
2115.911152  	0.002147 
2117.839968  	0.002354 
2119.768784  	0.002503 
2121.697600  	0.002003 
2123.626416  	0.002135 
2125.555232  	0.001985 
2127.484048  	0.002118 
2129.412864  	0.001794 
2131.341680  	0.001624 
2133.270496  	0.001520 
2135.199312  	0.002362 
2137.128128  	0.002465 
2139.056944  	0.002480 
2140.985760  	0.002283 
2142.914576  	0.002839 
2144.843392  	0.002831 
2146.772208  	0.002616 
2148.701024  	0.002109 
2150.629840  	0.002877 
2152.558656  	0.002813 
2154.487472  	0.003285 
2156.416288  	0.003738 
2158.345104  	0.005081 
2160.273920  	0.005100 
2162.202736  	0.005467 
2164.131552  	0.005045 
2166.060368  	0.005668 
2167.989184  	0.005376 
2169.918000  	0.005618 
2171.846816  	0.004299 
2173.775632  	0.004472 
2175.704448  	0.004930 
2177.633264  	0.004212 
2179.562080  	0.003238 
2181.490896  	0.003818 
2183.419712  	0.003038 
2185.348528  	0.002947 
2187.277344  	0.003539 
2189.206160  	0.003423 
2191.134976  	0.002881 
2193.063792  	0.003310 
2194.992608  	0.003130 
2196.921424  	0.003016 
2198.850240  	0.002968 
2200.779056  	0.002978 
2202.707872  	0.002239 
2204.636688  	0.002660 
2206.565504  	0.002821 
2208.494320  	0.002721 
2210.423136  	0.002437 
2212.351952  	0.002510 
2214.280768  	0.002386 
2216.209584  	0.002158 
2218.138400  	0.001583 
2220.067216  	0.002057 
2221.996032  	0.002391 
2223.924848  	0.003085 
2225.853664  	0.003626 
2227.782480  	0.003240 
2229.711296  	0.001865 
2231.640112  	0.001666 
2233.568928  	0.001644 
2235.497744  	0.002026 
2237.426560  	0.002234 
2239.355376  	0.002265 
2241.284192  	0.001835 
2243.213008  	0.001816 
2245.141824  	0.001726 
2247.070640  	0.002063 
2248.999456  	0.001953 
2250.928272  	0.001464 
2252.857088  	0.001243 
2254.785904  	0.001390 
2256.714720  	0.001033 
2258.643536  	0.000852 
2260.572352  	0.000903 
2262.501168  	0.001043 
2264.429984  	0.000775 
2266.358800  	0.000812 
2268.287616  	0.001042 
2270.216432  	0.001349 
2272.145248  	0.000947 
2274.074064  	0.000618 
2276.002880  	0.000866 
2277.931696  	0.001487 
2279.860512  	0.001557 
2281.789328  	0.001589 
2283.718144  	0.001358 
2285.646960  	0.001455 
2287.575776  	0.001492 
2289.504592  	0.001538 
2291.433408  	0.001270 
2293.362224  	0.001293 
2295.291040  	0.001610 
2297.219856  	0.001789 
2299.148672  	0.001519 
2301.077488  	0.001388 
2303.006304  	0.001266 
2304.935120  	0.001371 
2306.863936  	0.001415 
2308.792752  	0.001343 
2310.721568  	0.000866 
2312.650384  	0.000786 
2314.579200  	0.000698 
2316.508016  	0.000236 
2318.436832  	-0.000181 
2320.365648  	-0.000741 
2322.294464  	-0.001405 
2324.223280  	-0.001945 
2326.152096  	-0.002914 
2328.080912  	-0.003521 
2330.009728  	-0.004585 
2331.938544  	-0.005820 
2333.867360  	-0.006143 
2335.796176  	-0.006185 
2337.724992  	-0.006737 
2339.653808  	-0.006881 
2341.582624  	-0.007125 
2343.511440  	-0.007151 
2345.440256  	-0.006630 
2347.369072  	-0.004339 
2349.297888  	-0.002249 
2351.226704  	-0.002942 
2353.155520  	-0.005462 
2355.084336  	-0.007374 
2357.013152  	-0.009111 
2358.941968  	-0.010073 
2360.870784  	-0.011023 
2362.799600  	-0.010755 
2364.728416  	-0.010204 
2366.657232  	-0.009196 
2368.586048  	-0.007743 
2370.514864  	-0.006416 
2372.443680  	-0.005302 
2374.372496  	-0.003812 
2376.301312  	-0.002551 
2378.230128  	-0.001355 
2380.158944  	-0.000579 
2382.087760  	-0.000135 
2384.016576  	0.000141 
2385.945392  	0.000274 
2387.874208  	0.000366 
2389.803024  	0.000396 
2391.731840  	0.000137 
2393.660656  	0.000040 
2395.589472  	0.000127 
2397.518288  	0.000347 
2399.447104  	0.000393 
2401.375920  	0.000308 
2403.304736  	0.000027 
2405.233552  	0.000164 
2407.162368  	0.000186 
2409.091184  	0.000201 
2411.020000  	0.000218 
2412.948816  	0.000324 
2414.877632  	0.000413 
2416.806448  	0.000565 
2418.735264  	0.000494 
2420.664080  	0.000464 
2422.592896  	0.000345 
2424.521712  	0.000323 
2426.450528  	0.000290 
2428.379344  	0.000362 
2430.308160  	0.000448 
2432.236976  	0.000610 
2434.165792  	0.000459 
2436.094608  	0.000322 
2438.023424  	0.000554 
2439.952240  	0.000738 
2441.881056  	0.000774 
2443.809872  	0.000780 
2445.738688  	0.000764 
2447.667504  	0.000801 
2449.596320  	0.000726 
2451.525136  	0.000875 
2453.453952  	0.000944 
2455.382768  	0.000781 
2457.311584  	0.000754 
2459.240400  	0.000851 
2461.169216  	0.000774 
2463.098032  	0.000691 
2465.026848  	0.000677 
2466.955664  	0.000785 
2468.884480  	0.000715 
2470.813296  	0.000600 
2472.742112  	0.000612 
2474.670928  	0.000708 
2476.599744  	0.000660 
2478.528560  	0.000803 
2480.457376  	0.000909 
2482.386192  	0.000889 
2484.315008  	0.000951 
2486.243824  	0.000899 
2488.172640  	0.000811 
2490.101456  	0.001160 
2492.030272  	0.001399 
2493.959088  	0.001308 
2495.887904  	0.001161 
2497.816720  	0.001262 
2499.745536  	0.001230 
2501.674352  	0.001182 
2503.603168  	0.001477 
2505.531984  	0.001624 
2507.460800  	0.001255 
2509.389616  	0.001199 
2511.318432  	0.001384 
2513.247248  	0.001544 
2515.176064  	0.001463 
2517.104880  	0.001533 
2519.033696  	0.001430 
2520.962512  	0.001543 
2522.891328  	0.001818 
2524.820144  	0.001709 
2526.748960  	0.001744 
2528.677776  	0.002071 
2530.606592  	0.002182 
2532.535408  	0.002168 
2534.464224  	0.002034 
2536.393040  	0.002020 
2538.321856  	0.002047 
2540.250672  	0.002279 
2542.179488  	0.002233 
2544.108304  	0.002128 
2546.037120  	0.002079 
2547.965936  	0.002157 
2549.894752  	0.002235 
2551.823568  	0.002197 
2553.752384  	0.002322 
2555.681200  	0.002663 
2557.610016  	0.002587 
2559.538832  	0.002656 
2561.467648  	0.002927 
2563.396464  	0.003000 
2565.325280  	0.002902 
2567.254096  	0.002964 
2569.182912  	0.003032 
2571.111728  	0.003159 
2573.040544  	0.003000 
2574.969360  	0.003117 
2576.898176  	0.003621 
2578.826992  	0.003679 
2580.755808  	0.003350 
2582.684624  	0.003233 
2584.613440  	0.003446 
2586.542256  	0.003665 
2588.471072  	0.003830 
2590.399888  	0.003827 
2592.328704  	0.003830 
2594.257520  	0.003849 
2596.186336  	0.004000 
2598.115152  	0.004081 
2600.043968  	0.004028 
2601.972784  	0.004254 
2603.901600  	0.004406 
2605.830416  	0.004381 
2607.759232  	0.004321 
2609.688048  	0.004472 
2611.616864  	0.004602 
2613.545680  	0.004685 
2615.474496  	0.004713 
2617.403312  	0.004763 
2619.332128  	0.004930 
2621.260944  	0.004919 
2623.189760  	0.004920 
2625.118576  	0.005116 
2627.047392  	0.005285 
2628.976208  	0.005288 
2630.905024  	0.005355 
2632.833840  	0.005502 
2634.762656  	0.005697 
2636.691472  	0.005773 
2638.620288  	0.005796 
2640.549104  	0.005896 
2642.477920  	0.005949 
2644.406736  	0.006103 
2646.335552  	0.006311 
2648.264368  	0.006479 
2650.193184  	0.006463 
2652.122000  	0.006589 
2654.050816  	0.006760 
2655.979632  	0.006885 
2657.908448  	0.006966 
2659.837264  	0.007007 
2661.766080  	0.007009 
2663.694896  	0.007071 
2665.623712  	0.007183 
2667.552528  	0.007407 
2669.481344  	0.007630 
2671.410160  	0.007714 
2673.338976  	0.007781 
2675.267792  	0.007927 
2677.196608  	0.008023 
2679.125424  	0.008009 
2681.054240  	0.008099 
2682.983056  	0.008227 
2684.911872  	0.008146 
2686.840688  	0.008210 
2688.769504  	0.008359 
2690.698320  	0.008441 
2692.627136  	0.008530 
2694.555952  	0.008673 
2696.484768  	0.008774 
2698.413584  	0.008837 
2700.342400  	0.008923 
2702.271216  	0.009115 
2704.200032  	0.009301 
2706.128848  	0.009421 
2708.057664  	0.009415 
2709.986480  	0.009457 
2711.915296  	0.009601 
2713.844112  	0.009766 
2715.772928  	0.009768 
2717.701744  	0.009812 
2719.630560  	0.010059 
2721.559376  	0.010165 
2723.488192  	0.010232 
2725.417008  	0.010426 
2727.345824  	0.010628 
2729.274640  	0.010693 
2731.203456  	0.010726 
2733.132272  	0.010872 
2735.061088  	0.010999 
2736.989904  	0.011137 
2738.918720  	0.011205 
2740.847536  	0.011239 
2742.776352  	0.011249 
2744.705168  	0.011345 
2746.633984  	0.011439 
2748.562800  	0.011454 
2750.491616  	0.011438 
2752.420432  	0.011575 
2754.349248  	0.011554 
2756.278064  	0.011551 
2758.206880  	0.011524 
2760.135696  	0.011509 
2762.064512  	0.011560 
2763.993328  	0.011675 
2765.922144  	0.011756 
2767.850960  	0.011722 
2769.779776  	0.011689 
2771.708592  	0.011739 
2773.637408  	0.011669 
2775.566224  	0.011622 
2777.495040  	0.011557 
2779.423856  	0.011580 
2781.352672  	0.011584 
2783.281488  	0.011474 
2785.210304  	0.011456 
2787.139120  	0.011643 
2789.067936  	0.011681 
2790.996752  	0.011617 
2792.925568  	0.011419 
2794.854384  	0.011321 
2796.783200  	0.011316 
2798.712016  	0.011230 
2800.640832  	0.011156 
2802.569648  	0.011209 
2804.498464  	0.011282 
2806.427280  	0.011295 
2808.356096  	0.011282 
2810.284912  	0.011373 
2812.213728  	0.011365 
2814.142544  	0.011233 
2816.071360  	0.011188 
2818.000176  	0.011094 
2819.928992  	0.011006 
2821.857808  	0.010934 
2823.786624  	0.010815 
2825.715440  	0.010819 
2827.644256  	0.010698 
2829.573072  	0.010504 
2831.501888  	0.010229 
2833.430704  	0.009966 
2835.359520  	0.009664 
2837.288336  	0.009370 
2839.217152  	0.009060 
2841.145968  	0.008673 
2843.074784  	0.008247 
2845.003600  	0.007735 
2846.932416  	0.007322 
2848.861232  	0.006961 
2850.790048  	0.006576 
2852.718864  	0.006068 
2854.647680  	0.005522 
2856.576496  	0.004982 
2858.505312  	0.004475 
2860.434128  	0.004039 
2862.362944  	0.003350 
2864.291760  	0.002563 
2866.220576  	0.001957 
2868.149392  	0.001664 
2870.078208  	0.001517 
2872.007024  	0.001473 
2873.935840  	0.001575 
2875.864656  	0.001530 
2877.793472  	0.001357 
2879.722288  	0.001112 
2881.651104  	0.000754 
2883.579920  	0.000583 
2885.508736  	0.000717 
2887.437552  	0.001018 
2889.366368  	0.001111 
2891.295184  	0.000856 
2893.224000  	0.000572 
2895.152816  	0.000582 
2897.081632  	0.000336 
2899.010448  	-0.001306 
2900.939264  	-0.002820 
2902.868080  	-0.001678 
2904.796896  	-0.000432 
2906.725712  	0.000054 
2908.654528  	0.000604 
2910.583344  	0.001015 
2912.512160  	0.001569 
2914.440976  	0.002675 
2916.369792  	0.003477 
2918.298608  	0.003890 
2920.227424  	0.004287 
2922.156240  	0.004888 
2924.085056  	0.005640 
2926.013872  	0.006582 
2927.942688  	0.007561 
2929.871504  	0.008431 
2931.800320  	0.009284 
2933.729136  	0.010179 
2935.657952  	0.010763 
2937.586768  	0.011427 
2939.515584  	0.012163 
2941.444400  	0.012480 
2943.373216  	0.012496 
2945.302032  	0.012642 
2947.230848  	0.012822 
2949.159664  	0.012546 
2951.088480  	0.012044 
2953.017296  	0.011565 
2954.946112  	0.010973 
2956.874928  	0.010188 
2958.803744  	0.009410 
2960.732560  	0.008900 
2962.661376  	0.008316 
2964.590192  	0.007326 
2966.519008  	0.006172 
2968.447824  	0.005236 
2970.376640  	0.004444 
2972.305456  	0.003915 
2974.234272  	0.004129 
2976.163088  	0.004379 
2978.091904  	0.004329 
2980.020720  	0.004255 
2981.949536  	0.004427 
2983.878352  	0.004231 
2985.807168  	0.003384 
2987.735984  	0.002558 
2989.664800  	0.002956 
2991.593616  	0.005938 
2993.522432  	0.007906 
2995.451248  	0.008546 
2997.380064  	0.009414 
2999.308880  	0.010462 
3001.237696  	0.011678 
3003.166512  	0.013179 
3005.095328  	0.014598 
3007.024144  	0.015947 
3008.952960  	0.017270 
3010.881776  	0.018660 
3012.810592  	0.020114 
3014.739408  	0.021457 
3016.668224  	0.022509 
3018.597040  	0.023723 
3020.525856  	0.024834 
3022.454672  	0.025787 
3024.383488  	0.026731 
3026.312304  	0.027729 
3028.241120  	0.028852 
3030.169936  	0.029820 
3032.098752  	0.030598 
3034.027568  	0.031365 
3035.956384  	0.032201 
3037.885200  	0.033089 
3039.814016  	0.033748 
3041.742832  	0.034319 
3043.671648  	0.034864 
3045.600464  	0.035470 
3047.529280  	0.035986 
3049.458096  	0.036581 
3051.386912  	0.037327 
3053.315728  	0.037921 
3055.244544  	0.038392 
3057.173360  	0.039049 
3059.102176  	0.039634 
3061.030992  	0.040248 
3062.959808  	0.041042 
3064.888624  	0.041779 
3066.817440  	0.042516 
3068.746256  	0.043282 
3070.675072  	0.043868 
3072.603888  	0.044530 
3074.532704  	0.045395 
3076.461520  	0.046227 
3078.390336  	0.046881 
3080.319152  	0.047500 
3082.247968  	0.048238 
3084.176784  	0.048908 
3086.105600  	0.049679 
3088.034416  	0.050367 
3089.963232  	0.051122 
3091.892048  	0.051811 
3093.820864  	0.052478 
3095.749680  	0.053198 
3097.678496  	0.054055 
3099.607312  	0.054903 
3101.536128  	0.055650 
3103.464944  	0.056520 
3105.393760  	0.057208 
3107.322576  	0.057985 
3109.251392  	0.058701 
3111.180208  	0.059275 
3113.109024  	0.059963 
3115.037840  	0.060709 
3116.966656  	0.061451 
3118.895472  	0.062011 
3120.824288  	0.062593 
3122.753104  	0.063320 
3124.681920  	0.063714 
3126.610736  	0.064034 
3128.539552  	0.064877 
3130.468368  	0.065665 
3132.397184  	0.066178 
3134.326000  	0.066685 
3136.254816  	0.067087 
3138.183632  	0.067575 
3140.112448  	0.068229 
3142.041264  	0.068938 
3143.970080  	0.069494 
3145.898896  	0.070090 
3147.827712  	0.070719 
3149.756528  	0.071113 
3151.685344  	0.071571 
3153.614160  	0.072271 
3155.542976  	0.072897 
3157.471792  	0.073530 
3159.400608  	0.074187 
3161.329424  	0.074911 
3163.258240  	0.075356 
3165.187056  	0.075693 
3167.115872  	0.076157 
3169.044688  	0.076639 
3170.973504  	0.077003 
3172.902320  	0.077337 
3174.831136  	0.077801 
3176.759952  	0.078299 
3178.688768  	0.078727 
3180.617584  	0.079126 
3182.546400  	0.079409 
3184.475216  	0.079462 
3186.404032  	0.079408 
3188.332848  	0.079588 
3190.261664  	0.079950 
3192.190480  	0.080088 
3194.119296  	0.080107 
3196.048112  	0.080317 
3197.976928  	0.080155 
3199.905744  	0.079857 
3201.834560  	0.079759 
3203.763376  	0.079856 
3205.692192  	0.079962 
3207.621008  	0.079869 
3209.549824  	0.079806 
3211.478640  	0.079688 
3213.407456  	0.079413 
3215.336272  	0.079121 
3217.265088  	0.079030 
3219.193904  	0.078963 
3221.122720  	0.078712 
3223.051536  	0.078618 
3224.980352  	0.078576 
3226.909168  	0.078514 
3228.837984  	0.078306 
3230.766800  	0.078175 
3232.695616  	0.078251 
3234.624432  	0.078152 
3236.553248  	0.077918 
3238.482064  	0.077862 
3240.410880  	0.077886 
3242.339696  	0.078035 
3244.268512  	0.077932 
3246.197328  	0.078024 
3248.126144  	0.078336 
3250.054960  	0.078487 
3251.983776  	0.078631 
3253.912592  	0.078748 
3255.841408  	0.078913 
3257.770224  	0.079172 
3259.699040  	0.079366 
3261.627856  	0.079786 
3263.556672  	0.080029 
3265.485488  	0.080042 
3267.414304  	0.080172 
3269.343120  	0.080485 
3271.271936  	0.080768 
3273.200752  	0.080844 
3275.129568  	0.080750 
3277.058384  	0.080920 
3278.987200  	0.081144 
3280.916016  	0.081350 
3282.844832  	0.081541 
3284.773648  	0.081748 
3286.702464  	0.082079 
3288.631280  	0.082340 
3290.560096  	0.082457 
3292.488912  	0.082847 
3294.417728  	0.083237 
3296.346544  	0.083641 
3298.275360  	0.083647 
3300.204176  	0.083808 
3302.132992  	0.084219 
3304.061808  	0.084628 
3305.990624  	0.085139 
3307.919440  	0.085378 
3309.848256  	0.085477 
3311.777072  	0.085755 
3313.705888  	0.086025 
3315.634704  	0.086411 
3317.563520  	0.086717 
3319.492336  	0.086871 
3321.421152  	0.087015 
3323.349968  	0.087274 
3325.278784  	0.087475 
3327.207600  	0.087655 
3329.136416  	0.087633 
3331.065232  	0.087709 
3332.994048  	0.087830 
3334.922864  	0.087907 
3336.851680  	0.087838 
3338.780496  	0.087575 
3340.709312  	0.087437 
3342.638128  	0.087397 
3344.566944  	0.087133 
3346.495760  	0.086954 
3348.424576  	0.086687 
3350.353392  	0.086440 
3352.282208  	0.086173 
3354.211024  	0.085815 
3356.139840  	0.085609 
3358.068656  	0.085366 
3359.997472  	0.084891 
3361.926288  	0.084535 
3363.855104  	0.084459 
3365.783920  	0.084147 
3367.712736  	0.083582 
3369.641552  	0.083168 
3371.570368  	0.082785 
3373.499184  	0.082528 
3375.428000  	0.082193 
3377.356816  	0.081799 
3379.285632  	0.081590 
3381.214448  	0.081253 
3383.143264  	0.080896 
3385.072080  	0.080411 
3387.000896  	0.079987 
3388.929712  	0.079707 
3390.858528  	0.079310 
3392.787344  	0.078819 
3394.716160  	0.078383 
3396.644976  	0.078021 
3398.573792  	0.077642 
3400.502608  	0.077403 
3402.431424  	0.077010 
3404.360240  	0.076539 
3406.289056  	0.076074 
3408.217872  	0.075657 
3410.146688  	0.075107 
3412.075504  	0.074686 
3414.004320  	0.074220 
3415.933136  	0.073810 
3417.861952  	0.073197 
3419.790768  	0.072698 
3421.719584  	0.072233 
3423.648400  	0.071802 
3425.577216  	0.071351 
3427.506032  	0.070823 
3429.434848  	0.070305 
3431.363664  	0.069796 
3433.292480  	0.069187 
3435.221296  	0.068675 
3437.150112  	0.068072 
3439.078928  	0.067585 
3441.007744  	0.067038 
3442.936560  	0.066511 
3444.865376  	0.066143 
3446.794192  	0.065396 
3448.723008  	0.064412 
3450.651824  	0.063838 
3452.580640  	0.063412 
3454.509456  	0.063039 
3456.438272  	0.062321 
3458.367088  	0.061791 
3460.295904  	0.061200 
3462.224720  	0.060481 
3464.153536  	0.059833 
3466.082352  	0.059201 
3468.011168  	0.058104 
3469.939984  	0.057264 
3471.868800  	0.056798 
3473.797616  	0.056184 
3475.726432  	0.055256 
3477.655248  	0.054484 
3479.584064  	0.054043 
3481.512880  	0.053366 
3483.441696  	0.052503 
3485.370512  	0.051922 
3487.299328  	0.050879 
3489.228144  	0.050055 
3491.156960  	0.049362 
3493.085776  	0.048630 
3495.014592  	0.048012 
3496.943408  	0.047311 
3498.872224  	0.046629 
3500.801040  	0.046215 
3502.729856  	0.045346 
3504.658672  	0.044479 
3506.587488  	0.044336 
3508.516304  	0.043821 
3510.445120  	0.042893 
3512.373936  	0.042300 
3514.302752  	0.041731 
3516.231568  	0.041360 
3518.160384  	0.040767 
3520.089200  	0.040186 
3522.018016  	0.039733 
3523.946832  	0.038982 
3525.875648  	0.038393 
3527.804464  	0.037676 
3529.733280  	0.036923 
3531.662096  	0.036420 
3533.590912  	0.035859 
3535.519728  	0.035260 
3537.448544  	0.034814 
3539.377360  	0.034468 
3541.306176  	0.033854 
3543.234992  	0.033511 
3545.163808  	0.033002 
3547.092624  	0.032073 
3549.021440  	0.031534 
3550.950256  	0.031258 
3552.879072  	0.030172 
3554.807888  	0.029475 
3556.736704  	0.029169 
3558.665520  	0.028695 
3560.594336  	0.028106 
3562.523152  	0.027388 
3564.451968  	0.027196 
3566.380784  	0.026448 
3568.309600  	0.024334 
3570.238416  	0.024293 
3572.167232  	0.024513 
3574.096048  	0.023831 
3576.024864  	0.023028 
3577.953680  	0.022438 
3579.882496  	0.021730 
3581.811312  	0.021055 
3583.740128  	0.020718 
3585.668944  	0.020607 
3587.597760  	0.018534 
3589.526576  	0.017096 
3591.455392  	0.017661 
3593.384208  	0.017372 
3595.313024  	0.016101 
3597.241840  	0.015181 
3599.170656  	0.014427 
3601.099472  	0.013377 
3603.028288  	0.013080 
3604.957104  	0.013309 
3606.885920  	0.012791 
3608.814736  	0.011151 
3610.743552  	0.010694 
3612.672368  	0.009765 
3614.601184  	0.008287 
3616.530000  	0.008603 
3618.458816  	0.007002 
3620.387632  	0.004720 
3622.316448  	0.004949 
3624.245264  	0.005338 
3626.174080  	0.005486 
3628.102896  	0.003266 
3630.031712  	-0.001184 
3631.960528  	0.000607 
3633.889344  	0.000631 
3635.818160  	-0.000399 
3637.746976  	-0.001164 
3639.675792  	-0.001703 
3641.604608  	-0.002051 
3643.533424  	-0.002235 
3645.462240  	-0.001943 
3647.391056  	-0.003752 
3649.319872  	-0.007990 
3651.248688  	-0.010611 
3653.177504  	-0.008225 
3655.106320  	-0.007874 
3657.035136  	-0.010849 
3658.963952  	-0.010834 
3660.892768  	-0.010706 
3662.821584  	-0.011024 
3664.750400  	-0.010845 
3666.679216  	-0.010168 
3668.608032  	-0.010804 
3670.536848  	-0.014360 
3672.465664  	-0.012918 
3674.394480  	-0.012323 
3676.323296  	-0.017365 
3678.252112  	-0.015049 
3680.180928  	-0.013623 
3682.109744  	-0.013210 
3684.038560  	-0.013149 
3685.967376  	-0.012318 
3687.896192  	-0.013410 
3689.825008  	-0.016247 
3691.753824  	-0.016179 
3693.682640  	-0.014644 
3695.611456  	-0.013608 
3697.540272  	-0.012863 
3699.469088  	-0.011725 
3701.397904  	-0.012394 
3703.326720  	-0.012732 
3705.255536  	-0.011264 
3707.184352  	-0.010255 
3709.113168  	-0.010498 
3711.041984  	-0.012285 
3712.970800  	-0.013250 
3714.899616  	-0.011636 
3716.828432  	-0.010255 
3718.757248  	-0.010022 
3720.686064  	-0.010138 
3722.614880  	-0.010826 
3724.543696  	-0.010787 
3726.472512  	-0.011195 
3728.401328  	-0.010868 
3730.330144  	-0.009742 
3732.258960  	-0.010397 
3734.187776  	-0.010945 
3736.116592  	-0.012976 
3738.045408  	-0.012649 
3739.974224  	-0.010619 
3741.903040  	-0.008633 
3743.831856  	-0.010078 
3745.760672  	-0.013549 
3747.689488  	-0.010548 
3749.618304  	-0.011501 
3751.547120  	-0.014084 
3753.475936  	-0.013885 
3755.404752  	-0.011428 
3757.333568  	-0.010689 
3759.262384  	-0.011615 
3761.191200  	-0.012139 
3763.120016  	-0.010314 
3765.048832  	-0.010601 
3766.977648  	-0.010844 
3768.906464  	-0.010993 
3770.835280  	-0.012130 
3772.764096  	-0.011155 
3774.692912  	-0.010291 
3776.621728  	-0.009745 
3778.550544  	-0.010359 
3780.479360  	-0.011969 
3782.408176  	-0.010970 
3784.336992  	-0.010789 
3786.265808  	-0.010953 
3788.194624  	-0.010743 
3790.123440  	-0.010756 
3792.052256  	-0.010624 
3793.981072  	-0.009948 
3795.909888  	-0.010548 
3797.838704  	-0.010665 
3799.767520  	-0.009724 
3801.696336  	-0.013074 
3803.625152  	-0.012809 
3805.553968  	-0.010905 
3807.482784  	-0.012947 
3809.411600  	-0.012014 
3811.340416  	-0.010499 
3813.269232  	-0.009450 
3815.198048  	-0.010885 
3817.126864  	-0.012872 
3819.055680  	-0.010462 
3820.984496  	-0.012793 
3822.913312  	-0.013867 
3824.842128  	-0.011261 
3826.770944  	-0.011513 
3828.699760  	-0.010980 
3830.628576  	-0.010602 
3832.557392  	-0.011203 
3834.486208  	-0.010584 
3836.415024  	-0.010749 
3838.343840  	-0.012452 
3840.272656  	-0.012901 
3842.201472  	-0.012016 
3844.130288  	-0.012236 
3846.059104  	-0.011286 
3847.987920  	-0.009889 
3849.916736  	-0.008951 
3851.845552  	-0.009266 
3853.774368  	-0.015396 
3855.703184  	-0.014979 
3857.632000  	-0.012288 
3859.560816  	-0.010605 
3861.489632  	-0.010210 
3863.418448  	-0.010868 
3865.347264  	-0.011978 
3867.276080  	-0.010442 
3869.204896  	-0.010924 
3871.133712  	-0.012697 
3873.062528  	-0.011456 
3874.991344  	-0.012382 
3876.920160  	-0.010720 
3878.848976  	-0.009692 
3880.777792  	-0.011335 
3882.706608  	-0.010802 
3884.635424  	-0.010491 
3886.564240  	-0.012673 
3888.493056  	-0.010821 
3890.421872  	-0.010540 
3892.350688  	-0.012534 
3894.279504  	-0.011762 
3896.208320  	-0.010226 
3898.137136  	-0.009711 
3900.065952  	-0.010566 
3901.994768  	-0.010803 
3903.923584  	-0.011682 
3905.852400  	-0.012377 
3907.781216  	-0.011542 
3909.710032  	-0.010998 
3911.638848  	-0.010919 
3913.567664  	-0.010514 
3915.496480  	-0.010207 
3917.425296  	-0.011280 
3919.354112  	-0.011749 
3921.282928  	-0.011193 
3923.211744  	-0.010537 
3925.140560  	-0.011135 
3927.069376  	-0.011032 
3928.998192  	-0.010658 
3930.927008  	-0.010885 
3932.855824  	-0.011425 
3934.784640  	-0.011338 
3936.713456  	-0.011005 
3938.642272  	-0.010837 
3940.571088  	-0.010430 
3942.499904  	-0.010798 
3944.428720  	-0.011201 
3946.357536  	-0.010553 
3948.286352  	-0.010613 
3950.215168  	-0.011083 
3952.143984  	-0.011171 
3954.072800  	-0.011014 
3956.001616  	-0.010821 
3957.930432  	-0.010855 
3959.859248  	-0.010978 
3961.788064  	-0.011130 
3963.716880  	-0.011395 
3965.645696  	-0.011449 
3967.574512  	-0.011277 
3969.503328  	-0.011085 
3971.432144  	-0.011146 
3973.360960  	-0.011213 
3975.289776  	-0.011322 
3977.218592  	-0.011294 
3979.147408  	-0.011250 
3981.076224  	-0.011287 
3983.005040  	-0.011266 
3984.933856  	-0.011141 
3986.862672  	-0.011104 
3988.791488  	-0.011124 
3990.720304  	-0.011199 
3992.649120  	-0.011239 
3994.577936  	-0.011277 
3996.506752  	-0.011346 
3998.435568  	-0.011292 
4000.364384  	-0.011141 