##TITLE=No Description
##DATA TYPE=INFRARED SPECTRUM
##XUNITS=1/CM
##YUNITS=Abs
399.264912  	0.551785 
401.193728  	0.524807 
403.122544  	0.528759 
405.051360  	0.517718 
406.980176  	0.531898 
408.908992  	0.537498 
410.837808  	0.522583 
412.766624  	0.511194 
414.695440  	0.519737 
416.624256  	0.519229 
418.553072  	0.539423 
420.481888  	0.536243 
422.410704  	0.516248 
424.339520  	0.511359 
426.268336  	0.517615 
428.197152  	0.503953 
430.125968  	0.499146 
432.054784  	0.499317 
433.983600  	0.498434 
435.912416  	0.493207 
437.841232  	0.491108 
439.770048  	0.492773 
441.698864  	0.494281 
443.627680  	0.489093 
445.556496  	0.490575 
447.485312  	0.491908 
449.414128  	0.494642 
451.342944  	0.493232 
453.271760  	0.491564 
455.200576  	0.491183 
457.129392  	0.495726 
459.058208  	0.493685 
460.987024  	0.494744 
462.915840  	0.493265 
464.844656  	0.496961 
466.773472  	0.495743 
468.702288  	0.493998 
470.631104  	0.491095 
472.559920  	0.495238 
474.488736  	0.492236 
476.417552  	0.496078 
478.346368  	0.494750 
480.275184  	0.490918 
482.204000  	0.489830 
484.132816  	0.492008 
486.061632  	0.488548 
487.990448  	0.491064 
489.919264  	0.489559 
491.848080  	0.487492 
493.776896  	0.485395 
495.705712  	0.485750 
497.634528  	0.483214 
499.563344  	0.483737 
501.492160  	0.481344 
503.420976  	0.482606 
505.349792  	0.483288 
507.278608  	0.484439 
509.207424  	0.480834 
511.136240  	0.484049 
513.065056  	0.484976 
514.993872  	0.488676 
516.922688  	0.492442 
518.851504  	0.493904 
520.780320  	0.489632 
522.709136  	0.491401 
524.637952  	0.490801 
526.566768  	0.488253 
528.495584  	0.485500 
530.424400  	0.482471 
532.353216  	0.476741 
534.282032  	0.470321 
536.210848  	0.463421 
538.139664  	0.457474 
540.068480  	0.451491 
541.997296  	0.448721 
543.926112  	0.445689 
545.854928  	0.442629 
547.783744  	0.437076 
549.712560  	0.435255 
551.641376  	0.433452 
553.570192  	0.430459 
555.499008  	0.425745 
557.427824  	0.422879 
559.356640  	0.418274 
561.285456  	0.415398 
563.214272  	0.410841 
565.143088  	0.406698 
567.071904  	0.402906 
569.000720  	0.399946 
570.929536  	0.397303 
572.858352  	0.395221 
574.787168  	0.392704 
576.715984  	0.390509 
578.644800  	0.385928 
580.573616  	0.381377 
582.502432  	0.375462 
584.431248  	0.370023 
586.360064  	0.364966 
588.288880  	0.362507 
590.217696  	0.360674 
592.146512  	0.360114 
594.075328  	0.358020 
596.004144  	0.356038 
597.932960  	0.354202 
599.861776  	0.353549 
601.790592  	0.352809 
603.719408  	0.352130 
605.648224  	0.350607 
607.577040  	0.349273 
609.505856  	0.348065 
611.434672  	0.347090 
613.363488  	0.345958 
615.292304  	0.345702 
617.221120  	0.344260 
619.149936  	0.343164 
621.078752  	0.342159 
623.007568  	0.341272 
624.936384  	0.340024 
626.865200  	0.339602 
628.794016  	0.339363 
630.722832  	0.339807 
632.651648  	0.340073 
634.580464  	0.340575 
636.509280  	0.340997 
638.438096  	0.341475 
640.366912  	0.341615 
642.295728  	0.340454 
644.224544  	0.337940 
646.153360  	0.334286 
648.082176  	0.329798 
650.010992  	0.326502 
651.939808  	0.323265 
653.868624  	0.319970 
655.797440  	0.315280 
657.726256  	0.311210 
659.655072  	0.307294 
661.583888  	0.302826 
663.512704  	0.298287 
665.441520  	0.293675 
667.370336  	0.289103 
669.299152  	0.284995 
671.227968  	0.280369 
673.156784  	0.276811 
675.085600  	0.273762 
677.014416  	0.271052 
678.943232  	0.269082 
680.872048  	0.268147 
682.800864  	0.266968 
684.729680  	0.265572 
686.658496  	0.264126 
688.587312  	0.263373 
690.516128  	0.262693 
692.444944  	0.262564 
694.373760  	0.261560 
696.302576  	0.260503 
698.231392  	0.258752 
700.160208  	0.256357 
702.089024  	0.253504 
704.017840  	0.251095 
705.946656  	0.248474 
707.875472  	0.246273 
709.804288  	0.244518 
711.733104  	0.243262 
713.661920  	0.241911 
715.590736  	0.240898 
717.519552  	0.240568 
719.448368  	0.241822 
721.377184  	0.243839 
723.306000  	0.245781 
725.234816  	0.246832 
727.163632  	0.246119 
729.092448  	0.243325 
731.021264  	0.239500 
732.950080  	0.235244 
734.878896  	0.231152 
736.807712  	0.227817 
738.736528  	0.225379 
740.665344  	0.223416 
742.594160  	0.222187 
744.522976  	0.220897 
746.451792  	0.219965 
748.380608  	0.218911 
750.309424  	0.217787 
752.238240  	0.216602 
754.167056  	0.216247 
756.095872  	0.215862 
758.024688  	0.215021 
759.953504  	0.214974 
761.882320  	0.216565 
763.811136  	0.218183 
765.739952  	0.216908 
767.668768  	0.213388 
769.597584  	0.210678 
771.526400  	0.210602 
773.455216  	0.213647 
775.384032  	0.219476 
777.312848  	0.227457 
779.241664  	0.232846 
781.170480  	0.232066 
783.099296  	0.226053 
785.028112  	0.218956 
786.956928  	0.212462 
788.885744  	0.207092 
790.814560  	0.202971 
792.743376  	0.200957 
794.672192  	0.200479 
796.601008  	0.199873 
798.529824  	0.196692 
800.458640  	0.191982 
802.387456  	0.188433 
804.316272  	0.186758 
806.245088  	0.186119 
808.173904  	0.185725 
810.102720  	0.185914 
812.031536  	0.186501 
813.960352  	0.187392 
815.889168  	0.188624 
817.817984  	0.190280 
819.746800  	0.192487 
821.675616  	0.194597 
823.604432  	0.196042 
825.533248  	0.197108 
827.462064  	0.198116 
829.390880  	0.198442 
831.319696  	0.198421 
833.248512  	0.197374 
835.177328  	0.195436 
837.106144  	0.192402 
839.034960  	0.188601 
840.963776  	0.183522 
842.892592  	0.178519 
844.821408  	0.174064 
846.750224  	0.170014 
848.679040  	0.166776 
850.607856  	0.164439 
852.536672  	0.163026 
854.465488  	0.161789 
856.394304  	0.161193 
858.323120  	0.160130 
860.251936  	0.158495 
862.180752  	0.156825 
864.109568  	0.154594 
866.038384  	0.152262 
867.967200  	0.150415 
869.896016  	0.149078 
871.824832  	0.148401 
873.753648  	0.149227 
875.682464  	0.150823 
877.611280  	0.153472 
879.540096  	0.156697 
881.468912  	0.160097 
883.397728  	0.163559 
885.326544  	0.166324 
887.255360  	0.168167 
889.184176  	0.168770 
891.112992  	0.167943 
893.041808  	0.165835 
894.970624  	0.162428 
896.899440  	0.157576 
898.828256  	0.151848 
900.757072  	0.146254 
902.685888  	0.141587 
904.614704  	0.139284 
906.543520  	0.139445 
908.472336  	0.142193 
910.401152  	0.146092 
912.329968  	0.150414 
914.258784  	0.154529 
916.187600  	0.158488 
918.116416  	0.162069 
920.045232  	0.164549 
921.974048  	0.166216 
923.902864  	0.167826 
925.831680  	0.169359 
927.760496  	0.171078 
929.689312  	0.172863 
931.618128  	0.175010 
933.546944  	0.176633 
935.475760  	0.177230 
937.404576  	0.176932 
939.333392  	0.176240 
941.262208  	0.176038 
943.191024  	0.177806 
945.119840  	0.182804 
947.048656  	0.191261 
948.977472  	0.203407 
950.906288  	0.218665 
952.835104  	0.236561 
954.763920  	0.256072 
956.692736  	0.274507 
958.621552  	0.289807 
960.550368  	0.299652 
962.479184  	0.303617 
964.408000  	0.300575 
966.336816  	0.291848 
968.265632  	0.277810 
970.194448  	0.260876 
972.123264  	0.241873 
974.052080  	0.222441 
975.980896  	0.203828 
977.909712  	0.186865 
979.838528  	0.172076 
981.767344  	0.159759 
983.696160  	0.151107 
985.624976  	0.145964 
987.553792  	0.144884 
989.482608  	0.148023 
991.411424  	0.154505 
993.340240  	0.163638 
995.269056  	0.173940 
997.197872  	0.184763 
999.126688  	0.195433 
1001.055504  	0.206521 
1002.984320  	0.216882 
1004.913136  	0.227485 
1006.841952  	0.237405 
1008.770768  	0.246058 
1010.699584  	0.252958 
1012.628400  	0.257706 
1014.557216  	0.260281 
1016.486032  	0.261118 
1018.414848  	0.260729 
1020.343664  	0.259845 
1022.272480  	0.258975 
1024.201296  	0.258274 
1026.130112  	0.257637 
1028.058928  	0.258604 
1029.987744  	0.261632 
1031.916560  	0.266405 
1033.845376  	0.272195 
1035.774192  	0.280042 
1037.703008  	0.290268 
1039.631824  	0.304328 
1041.560640  	0.321541 
1043.489456  	0.341936 
1045.418272  	0.362408 
1047.347088  	0.379408 
1049.275904  	0.388301 
1051.204720  	0.389497 
1053.133536  	0.384784 
1055.062352  	0.377046 
1056.991168  	0.368438 
1058.919984  	0.361826 
1060.848800  	0.356501 
1062.777616  	0.352262 
1064.706432  	0.347312 
1066.635248  	0.341337 
1068.564064  	0.333831 
1070.492880  	0.325171 
1072.421696  	0.317059 
1074.350512  	0.312953 
1076.279328  	0.312768 
1078.208144  	0.316720 
1080.136960  	0.321727 
1082.065776  	0.324354 
1083.994592  	0.321708 
1085.923408  	0.314412 
1087.852224  	0.302910 
1089.781040  	0.289874 
1091.709856  	0.275434 
1093.638672  	0.260301 
1095.567488  	0.244127 
1097.496304  	0.228164 
1099.425120  	0.212625 
1101.353936  	0.197894 
1103.282752  	0.183881 
1105.211568  	0.170922 
1107.140384  	0.159369 
1109.069200  	0.148982 
1110.998016  	0.139484 
1112.926832  	0.130937 
1114.855648  	0.123195 
1116.784464  	0.115398 
1118.713280  	0.107863 
1120.642096  	0.100897 
1122.570912  	0.094499 
1124.499728  	0.088486 
1126.428544  	0.083085 
1128.357360  	0.078678 
1130.286176  	0.074940 
1132.214992  	0.072054 
1134.143808  	0.069927 
1136.072624  	0.068199 
1138.001440  	0.066403 
1139.930256  	0.064632 
1141.859072  	0.062892 
1143.787888  	0.061023 
1145.716704  	0.059323 
1147.645520  	0.057788 
1149.574336  	0.056922 
1151.503152  	0.056400 
1153.431968  	0.056498 
1155.360784  	0.057007 
1157.289600  	0.058523 
1159.218416  	0.060498 
1161.147232  	0.062895 
1163.076048  	0.065748 
1165.004864  	0.068632 
1166.933680  	0.071158 
1168.862496  	0.073739 
1170.791312  	0.077030 
1172.720128  	0.080817 
1174.648944  	0.084827 
1176.577760  	0.088859 
1178.506576  	0.093106 
1180.435392  	0.097381 
1182.364208  	0.101652 
1184.293024  	0.106502 
1186.221840  	0.112208 
1188.150656  	0.118584 
1190.079472  	0.125747 
1192.008288  	0.134433 
1193.937104  	0.144330 
1195.865920  	0.154926 
1197.794736  	0.166369 
1199.723552  	0.178295 
1201.652368  	0.190270 
1203.581184  	0.201048 
1205.510000  	0.210947 
1207.438816  	0.219330 
1209.367632  	0.226120 
1211.296448  	0.231091 
1213.225264  	0.234688 
1215.154080  	0.236119 
1217.082896  	0.236344 
1219.011712  	0.235018 
1220.940528  	0.232845 
1222.869344  	0.229898 
1224.798160  	0.226634 
1226.726976  	0.222269 
1228.655792  	0.217221 
1230.584608  	0.211425 
1232.513424  	0.205393 
1234.442240  	0.198853 
1236.371056  	0.191930 
1238.299872  	0.184406 
1240.228688  	0.176388 
1242.157504  	0.168366 
1244.086320  	0.160834 
1246.015136  	0.152821 
1247.943952  	0.145067 
1249.872768  	0.137663 
1251.801584  	0.130597 
1253.730400  	0.123773 
1255.659216  	0.117154 
1257.588032  	0.110793 
1259.516848  	0.105112 
1261.445664  	0.099687 
1263.374480  	0.094695 
1265.303296  	0.090382 
1267.232112  	0.087008 
1269.160928  	0.084711 
1271.089744  	0.083338 
1273.018560  	0.082673 
1274.947376  	0.082963 
1276.876192  	0.084029 
1278.805008  	0.084717 
1280.733824  	0.084453 
1282.662640  	0.082774 
1284.591456  	0.080562 
1286.520272  	0.078760 
1288.449088  	0.077893 
1290.377904  	0.077824 
1292.306720  	0.078778 
1294.235536  	0.079660 
1296.164352  	0.079385 
1298.093168  	0.077326 
1300.021984  	0.074290 
1301.950800  	0.070905 
1303.879616  	0.067238 
1305.808432  	0.063462 
1307.737248  	0.059588 
1309.666064  	0.055735 
1311.594880  	0.053063 
1313.523696  	0.051319 
1315.452512  	0.049933 
1317.381328  	0.049546 
1319.310144  	0.049934 
1321.238960  	0.050213 
1323.167776  	0.050857 
1325.096592  	0.051762 
1327.025408  	0.052289 
1328.954224  	0.052254 
1330.883040  	0.051510 
1332.811856  	0.050137 
1334.740672  	0.048963 
1336.669488  	0.048893 
1338.598304  	0.050038 
1340.527120  	0.049934 
1342.455936  	0.047741 
1344.384752  	0.047060 
1346.313568  	0.047508 
1348.242384  	0.048518 
1350.171200  	0.049949 
1352.100016  	0.051742 
1354.028832  	0.054078 
1355.957648  	0.056597 
1357.886464  	0.058863 
1359.815280  	0.061375 
1361.744096  	0.065205 
1363.672912  	0.068699 
1365.601728  	0.069378 
1367.530544  	0.071100 
1369.459360  	0.073350 
1371.388176  	0.073847 
1373.316992  	0.074221 
1375.245808  	0.073187 
1377.174624  	0.069511 
1379.103440  	0.066343 
1381.032256  	0.063125 
1382.961072  	0.060354 
1384.889888  	0.058341 
1386.818704  	0.058141 
1388.747520  	0.056352 
1390.676336  	0.052946 
1392.605152  	0.050629 
1394.533968  	0.050961 
1396.462784  	0.051742 
1398.391600  	0.051518 
1400.320416  	0.051673 
1402.249232  	0.050917 
1404.178048  	0.052267 
1406.106864  	0.053776 
1408.035680  	0.054515 
1409.964496  	0.056364 
1411.893312  	0.058930 
1413.822128  	0.061006 
1415.750944  	0.063679 
1417.679760  	0.066673 
1419.608576  	0.069593 
1421.537392  	0.068108 
1423.466208  	0.066895 
1425.395024  	0.065092 
1427.323840  	0.061674 
1429.252656  	0.059517 
1431.181472  	0.057734 
1433.110288  	0.056193 
1435.039104  	0.056114 
1436.967920  	0.059856 
1438.896736  	0.060802 
1440.825552  	0.060540 
1442.754368  	0.061064 
1444.683184  	0.061098 
1446.612000  	0.061604 
1448.540816  	0.062676 
1450.469632  	0.062557 
1452.398448  	0.062724 
1454.327264  	0.062658 
1456.256080  	0.064630 
1458.184896  	0.068464 
1460.113712  	0.064882 
1462.042528  	0.061769 
1463.971344  	0.061504 
1465.900160  	0.063531 
1467.828976  	0.063388 
1469.757792  	0.063889 
1471.686608  	0.068679 
1473.615424  	0.079548 
1475.544240  	0.084340 
1477.473056  	0.089402 
1479.401872  	0.092093 
1481.330688  	0.096065 
1483.259504  	0.098628 
1485.188320  	0.099690 
1487.117136  	0.101224 
1489.045952  	0.103790 
1490.974768  	0.102421 
1492.903584  	0.096344 
1494.832400  	0.090472 
1496.761216  	0.086016 
1498.690032  	0.079793 
1500.618848  	0.073240 
1502.547664  	0.066536 
1504.476480  	0.061074 
1506.405296  	0.061917 
1508.334112  	0.064206 
1510.262928  	0.058148 
1512.191744  	0.054279 
1514.120560  	0.052594 
1516.049376  	0.054178 
1517.978192  	0.056396 
1519.907008  	0.056627 
1521.835824  	0.063844 
1523.764640  	0.066645 
1525.693456  	0.069450 
1527.622272  	0.072109 
1529.551088  	0.070573 
1531.479904  	0.067800 
1533.408720  	0.066725 
1535.337536  	0.062710 
1537.266352  	0.057128 
1539.195168  	0.054993 
1541.123984  	0.056001 
1543.052800  	0.054222 
1544.981616  	0.052092 
1546.910432  	0.048427 
1548.839248  	0.047189 
1550.768064  	0.048817 
1552.696880  	0.047658 
1554.625696  	0.049325 
1556.554512  	0.048767 
1558.483328  	0.053960 
1560.412144  	0.063835 
1562.340960  	0.061445 
1564.269776  	0.063195 
1566.198592  	0.068297 
1568.127408  	0.071512 
1570.056224  	0.081457 
1571.985040  	0.086275 
1573.913856  	0.087827 
1575.842672  	0.093006 
1577.771488  	0.098892 
1579.700304  	0.096343 
1581.629120  	0.095032 
1583.557936  	0.094362 
1585.486752  	0.095677 
1587.415568  	0.098473 
1589.344384  	0.103903 
1591.273200  	0.110414 
1593.202016  	0.118626 
1595.130832  	0.127537 
1597.059648  	0.136275 
1598.988464  	0.142811 
1600.917280  	0.149085 
1602.846096  	0.153550 
1604.774912  	0.156144 
1606.703728  	0.156076 
1608.632544  	0.156012 
1610.561360  	0.153879 
1612.490176  	0.151440 
1614.418992  	0.147877 
1616.347808  	0.149888 
1618.276624  	0.154184 
1620.205440  	0.154270 
1622.134256  	0.156542 
1624.063072  	0.166426 
1625.991888  	0.171398 
1627.920704  	0.179265 
1629.849520  	0.188079 
1631.778336  	0.193400 
1633.707152  	0.196701 
1635.635968  	0.208906 
1637.564784  	0.220219 
1639.493600  	0.220144 
1641.422416  	0.220845 
1643.351232  	0.220546 
1645.280048  	0.219185 
1647.208864  	0.225653 
1649.137680  	0.223511 
1651.066496  	0.214760 
1652.995312  	0.215722 
1654.924128  	0.221806 
1656.852944  	0.213143 
1658.781760  	0.207243 
1660.710576  	0.202574 
1662.639392  	0.200111 
1664.568208  	0.195754 
1666.497024  	0.188615 
1668.425840  	0.183668 
1670.354656  	0.180708 
1672.283472  	0.174666 
1674.212288  	0.168870 
1676.141104  	0.167069 
1678.069920  	0.162491 
1679.998736  	0.160012 
1681.927552  	0.156689 
1683.856368  	0.157162 
1685.785184  	0.160603 
1687.714000  	0.155913 
1689.642816  	0.154543 
1691.571632  	0.152143 
1693.500448  	0.148178 
1695.429264  	0.147934 
1697.358080  	0.149842 
1699.286896  	0.145653 
1701.215712  	0.148116 
1703.144528  	0.142861 
1705.073344  	0.139059 
1707.002160  	0.135640 
1708.930976  	0.129734 
1710.859792  	0.123496 
1712.788608  	0.116604 
1714.717424  	0.109463 
1716.646240  	0.101608 
1718.575056  	0.090749 
1720.503872  	0.078708 
1722.432688  	0.069034 
1724.361504  	0.059466 
1726.290320  	0.050652 
1728.219136  	0.043742 
1730.147952  	0.038733 
1732.076768  	0.033560 
1734.005584  	0.031121 
1735.934400  	0.026559 
1737.863216  	0.022387 
1739.792032  	0.020322 
1741.720848  	0.018553 
1743.649664  	0.017491 
1745.578480  	0.015974 
1747.507296  	0.014786 
1749.436112  	0.015088 
1751.364928  	0.014335 
1753.293744  	0.011767 
1755.222560  	0.009713 
1757.151376  	0.010664 
1759.080192  	0.009555 
1761.009008  	0.009075 
1762.937824  	0.008931 
1764.866640  	0.007345 
1766.795456  	0.006798 
1768.724272  	0.007558 
1770.653088  	0.006437 
1772.581904  	0.008031 
1774.510720  	0.007713 
1776.439536  	0.006501 
1778.368352  	0.005298 
1780.297168  	0.005696 
1782.225984  	0.005197 
1784.154800  	0.004814 
1786.083616  	0.004576 
1788.012432  	0.003780 
1789.941248  	0.003850 
1791.870064  	0.005561 
1793.798880  	0.005406 
1795.727696  	0.004439 
1797.656512  	0.003333 
1799.585328  	0.003146 
1801.514144  	0.004173 
1803.442960  	0.003659 
1805.371776  	0.002647 
1807.300592  	0.002367 
1809.229408  	0.002033 
1811.158224  	0.002395 
1813.087040  	0.001930 
1815.015856  	0.001077 
1816.944672  	0.001496 
1818.873488  	0.002022 
1820.802304  	0.001732 
1822.731120  	0.001685 
1824.659936  	0.002169 
1826.588752  	0.002282 
1828.517568  	0.001479 
1830.446384  	0.002707 
1832.375200  	0.001883 
1834.304016  	0.001244 
1836.232832  	0.001292 
1838.161648  	0.001654 
1840.090464  	0.000995 
1842.019280  	0.000567 
1843.948096  	0.001791 
1845.876912  	0.002776 
1847.805728  	0.001771 
1849.734544  	0.001132 
1851.663360  	0.000575 
1853.592176  	0.000872 
1855.520992  	0.000676 
1857.449808  	0.000777 
1859.378624  	0.000358 
1861.307440  	0.000507 
1863.236256  	0.000223 
1865.165072  	0.000146 
1867.093888  	0.000605 
1869.022704  	0.002657 
1870.951520  	0.002037 
1872.880336  	0.000737 
1874.809152  	0.000198 
1876.737968  	0.000151 
1878.666784  	-0.000029 
1880.595600  	-0.000064 
1882.524416  	-0.000030 
1884.453232  	0.000427 
1886.382048  	-0.000182 
1888.310864  	0.000133 
1890.239680  	0.000811 
1892.168496  	0.000442 
1894.097312  	0.000315 
1896.026128  	0.000637 
1897.954944  	-0.000097 
1899.883760  	-0.000217 
1901.812576  	-0.000344 
1903.741392  	0.000052 
1905.670208  	-0.000327 
1907.599024  	-0.000307 
1909.527840  	0.000270 
1911.456656  	0.000590 
1913.385472  	0.000337 
1915.314288  	0.000520 
1917.243104  	0.000653 
1919.171920  	0.001289 
1921.100736  	0.000453 
1923.029552  	0.000371 
1924.958368  	-0.000759 
1926.887184  	-0.001063 
1928.816000  	-0.001425 
1930.744816  	-0.001003 
1932.673632  	-0.000674 
1934.602448  	-0.000245 
1936.531264  	-0.000664 
1938.460080  	-0.000518 
1940.388896  	-0.000357 
1942.317712  	0.000978 
1944.246528  	-0.000049 
1946.175344  	-0.000416 
1948.104160  	-0.000532 
1950.032976  	-0.000417 
1951.961792  	-0.001390 
1953.890608  	-0.002042 
1955.819424  	-0.002228 
1957.748240  	-0.002148 
1959.677056  	-0.002446 
1961.605872  	-0.001250 
1963.534688  	-0.001047 
1965.463504  	-0.000339 
1967.392320  	-0.000769 
1969.321136  	-0.000958 
1971.249952  	-0.002184 
1973.178768  	-0.002070 
1975.107584  	-0.001335 
1977.036400  	0.000212 
1978.965216  	0.000502 
1980.894032  	0.000635 
1982.822848  	0.000195 
1984.751664  	0.000678 
1986.680480  	-0.000005 
1988.609296  	0.000136 
1990.538112  	0.000735 
1992.466928  	0.001747 
1994.395744  	0.000117 
1996.324560  	-0.000350 
1998.253376  	-0.001178 
2000.182192  	-0.001563 
2002.111008  	-0.001761 
2004.039824  	-0.001595 
2005.968640  	-0.001532 
2007.897456  	-0.000857 
2009.826272  	-0.000195 
2011.755088  	0.000583 
2013.683904  	0.000223 
2015.612720  	0.001202 
2017.541536  	0.001032 
2019.470352  	0.000662 
2021.399168  	-0.000600 
2023.327984  	-0.000436 
2025.256800  	0.000235 
2027.185616  	0.001410 
2029.114432  	0.001230 
2031.043248  	0.001308 
2032.972064  	0.001505 
2034.900880  	0.002766 
2036.829696  	0.001976 
2038.758512  	0.001391 
2040.687328  	0.000533 
2042.616144  	0.000878 
2044.544960  	0.000794 
2046.473776  	0.001182 
2048.402592  	0.002001 
2050.331408  	0.002733 
2052.260224  	0.001922 
2054.189040  	0.001623 
2056.117856  	0.001180 
2058.046672  	0.001413 
2059.975488  	0.001830 
2061.904304  	0.002486 
2063.833120  	0.002421 
2065.761936  	0.002861 
2067.690752  	0.002556 
2069.619568  	0.002386 
2071.548384  	0.002315 
2073.477200  	0.002808 
2075.406016  	0.002850 
2077.334832  	0.003221 
2079.263648  	0.003582 
2081.192464  	0.004008 
2083.121280  	0.003390 
2085.050096  	0.002921 
2086.978912  	0.002645 
2088.907728  	0.003010 
2090.836544  	0.003078 
2092.765360  	0.002998 
2094.694176  	0.003183 
2096.622992  	0.003442 
2098.551808  	0.003221 
2100.480624  	0.003467 
2102.409440  	0.003521 
2104.338256  	0.003889 
2106.267072  	0.003713 
2108.195888  	0.003479 
2110.124704  	0.003438 
2112.053520  	0.003920 
2113.982336  	0.003966 
2115.911152  	0.003581 
2117.839968  	0.002940 
2119.768784  	0.003121 
2121.697600  	0.003090 
2123.626416  	0.003116 
2125.555232  	0.002636 
2127.484048  	0.002272 
2129.412864  	0.002458 
2131.341680  	0.003004 
2133.270496  	0.002788 
2135.199312  	0.002843 
2137.128128  	0.003312 
2139.056944  	0.003645 
2140.985760  	0.003438 
2142.914576  	0.004327 
2144.843392  	0.004172 
2146.772208  	0.003949 
2148.701024  	0.003506 
2150.629840  	0.003642 
2152.558656  	0.004164 
2154.487472  	0.004136 
2156.416288  	0.002855 
2158.345104  	0.004639 
2160.273920  	0.007575 
2162.202736  	0.007331 
2164.131552  	0.005483 
2166.060368  	0.005432 
2167.989184  	0.005170 
2169.918000  	0.004557 
2171.846816  	0.004482 
2173.775632  	0.004910 
2175.704448  	0.004572 
2177.633264  	0.005563 
2179.562080  	0.005150 
2181.490896  	0.005400 
2183.419712  	0.005519 
2185.348528  	0.005593 
2187.277344  	0.004807 
2189.206160  	0.004789 
2191.134976  	0.004809 
2193.063792  	0.004676 
2194.992608  	0.004025 
2196.921424  	0.004189 
2198.850240  	0.003929 
2200.779056  	0.003546 
2202.707872  	0.003370 
2204.636688  	0.003772 
2206.565504  	0.003423 
2208.494320  	0.003243 
2210.423136  	0.003493 
2212.351952  	0.004128 
2214.280768  	0.003968 
2216.209584  	0.004289 
2218.138400  	0.003749 
2220.067216  	0.003303 
2221.996032  	0.003065 
2223.924848  	0.003558 
2225.853664  	0.004036 
2227.782480  	0.004258 
2229.711296  	0.003461 
2231.640112  	0.003284 
2233.568928  	0.003043 
2235.497744  	0.002953 
2237.426560  	0.002510 
2239.355376  	0.002778 
2241.284192  	0.002800 
2243.213008  	0.002825 
2245.141824  	0.002997 
2247.070640  	0.003195 
2248.999456  	0.002793 
2250.928272  	0.002798 
2252.857088  	0.002616 
2254.785904  	0.002899 
2256.714720  	0.003198 
2258.643536  	0.003657 
2260.572352  	0.003847 
2262.501168  	0.003819 
2264.429984  	0.003747 
2266.358800  	0.003424 
2268.287616  	0.002801 
2270.216432  	0.002873 
2272.145248  	0.003238 
2274.074064  	0.003877 
2276.002880  	0.003762 
2277.931696  	0.003984 
2279.860512  	0.003949 
2281.789328  	0.003868 
2283.718144  	0.003950 
2285.646960  	0.004438 
2287.575776  	0.004587 
2289.504592  	0.004598 
2291.433408  	0.004616 
2293.362224  	0.004801 
2295.291040  	0.004734 
2297.219856  	0.005013 
2299.148672  	0.005171 
2301.077488  	0.005278 
2303.006304  	0.005609 
2304.935120  	0.005986 
2306.863936  	0.005969 
2308.792752  	0.006092 
2310.721568  	0.006170 
2312.650384  	0.005889 
2314.579200  	0.005451 
2316.508016  	0.005517 
2318.436832  	0.005426 
2320.365648  	0.005506 
2322.294464  	0.005613 
2324.223280  	0.004943 
2326.152096  	0.003069 
2328.080912  	0.001817 
2330.009728  	0.001409 
2331.938544  	0.001185 
2333.867360  	0.000312 
2335.796176  	-0.000753 
2337.724992  	-0.001187 
2339.653808  	-0.000898 
2341.582624  	-0.000679 
2343.511440  	0.000559 
2345.440256  	0.002675 
2347.369072  	0.003873 
2349.297888  	0.002902 
2351.226704  	0.001000 
2353.155520  	-0.000935 
2355.084336  	-0.002039 
2357.013152  	-0.002576 
2358.941968  	-0.002601 
2360.870784  	-0.002644 
2362.799600  	-0.001990 
2364.728416  	-0.000767 
2366.657232  	0.000272 
2368.586048  	0.001223 
2370.514864  	0.002630 
2372.443680  	0.003673 
2374.372496  	0.005028 
2376.301312  	0.005699 
2378.230128  	0.005797 
2380.158944  	0.005599 
2382.087760  	0.005182 
2384.016576  	0.004391 
2385.945392  	0.003935 
2387.874208  	0.003779 
2389.803024  	0.003298 
2391.731840  	0.002950 
2393.660656  	0.003025 
2395.589472  	0.003064 
2397.518288  	0.003081 
2399.447104  	0.002950 
2401.375920  	0.002870 
2403.304736  	0.002739 
2405.233552  	0.002737 
2407.162368  	0.002770 
2409.091184  	0.002918 
2411.020000  	0.002847 
2412.948816  	0.002827 
2414.877632  	0.002866 
2416.806448  	0.003166 
2418.735264  	0.003419 
2420.664080  	0.003472 
2422.592896  	0.003365 
2424.521712  	0.003414 
2426.450528  	0.003371 
2428.379344  	0.003410 
2430.308160  	0.003544 
2432.236976  	0.003609 
2434.165792  	0.003760 
2436.094608  	0.003870 
2438.023424  	0.003866 
2439.952240  	0.004080 
2441.881056  	0.004123 
2443.809872  	0.004083 
2445.738688  	0.004092 
2447.667504  	0.004161 
2449.596320  	0.004412 
2451.525136  	0.004586 
2453.453952  	0.004617 
2455.382768  	0.004742 
2457.311584  	0.004524 
2459.240400  	0.004383 
2461.169216  	0.004487 
2463.098032  	0.004775 
2465.026848  	0.004716 
2466.955664  	0.004572 
2468.884480  	0.004242 
2470.813296  	0.004168 
2472.742112  	0.004390 
2474.670928  	0.004628 
2476.599744  	0.004798 
2478.528560  	0.004976 
2480.457376  	0.005178 
2482.386192  	0.005595 
2484.315008  	0.005775 
2486.243824  	0.005852 
2488.172640  	0.006025 
2490.101456  	0.006246 
2492.030272  	0.006228 
2493.959088  	0.005953 
2495.887904  	0.005813 
2497.816720  	0.006034 
2499.745536  	0.006108 
2501.674352  	0.006225 
2503.603168  	0.006277 
2505.531984  	0.006418 
2507.460800  	0.006426 
2509.389616  	0.006363 
2511.318432  	0.006400 
2513.247248  	0.006603 
2515.176064  	0.006926 
2517.104880  	0.007069 
2519.033696  	0.006876 
2520.962512  	0.006796 
2522.891328  	0.006842 
2524.820144  	0.007229 
2526.748960  	0.007419 
2528.677776  	0.007442 
2530.606592  	0.007382 
2532.535408  	0.007511 
2534.464224  	0.007404 
2536.393040  	0.007455 
2538.321856  	0.007662 
2540.250672  	0.007823 
2542.179488  	0.007973 
2544.108304  	0.008063 
2546.037120  	0.008223 
2547.965936  	0.008391 
2549.894752  	0.008591 
2551.823568  	0.008869 
2553.752384  	0.008948 
2555.681200  	0.008843 
2557.610016  	0.008806 
2559.538832  	0.008809 
2561.467648  	0.009053 
2563.396464  	0.009275 
2565.325280  	0.009404 
2567.254096  	0.009337 
2569.182912  	0.009351 
2571.111728  	0.009610 
2573.040544  	0.009834 
2574.969360  	0.010093 
2576.898176  	0.010361 
2578.826992  	0.010374 
2580.755808  	0.010264 
2582.684624  	0.010444 
2584.613440  	0.010693 
2586.542256  	0.010998 
2588.471072  	0.010938 
2590.399888  	0.010931 
2592.328704  	0.011156 
2594.257520  	0.011353 
2596.186336  	0.011172 
2598.115152  	0.011175 
2600.043968  	0.011452 
2601.972784  	0.011758 
2603.901600  	0.012019 
2605.830416  	0.012002 
2607.759232  	0.011987 
2609.688048  	0.012066 
2611.616864  	0.012240 
2613.545680  	0.012461 
2615.474496  	0.012549 
2617.403312  	0.012737 
2619.332128  	0.013017 
2621.260944  	0.013203 
2623.189760  	0.013261 
2625.118576  	0.013451 
2627.047392  	0.013576 
2628.976208  	0.013770 
2630.905024  	0.013999 
2632.833840  	0.014243 
2634.762656  	0.014367 
2636.691472  	0.014517 
2638.620288  	0.014665 
2640.549104  	0.014890 
2642.477920  	0.015175 
2644.406736  	0.015244 
2646.335552  	0.015281 
2648.264368  	0.015454 
2650.193184  	0.015685 
2652.122000  	0.015864 
2654.050816  	0.016067 
2655.979632  	0.016245 
2657.908448  	0.016417 
2659.837264  	0.016624 
2661.766080  	0.016776 
2663.694896  	0.016943 
2665.623712  	0.017087 
2667.552528  	0.017251 
2669.481344  	0.017340 
2671.410160  	0.017442 
2673.338976  	0.017662 
2675.267792  	0.018004 
2677.196608  	0.018337 
2679.125424  	0.018470 
2681.054240  	0.018442 
2682.983056  	0.018609 
2684.911872  	0.018840 
2686.840688  	0.019024 
2688.769504  	0.019184 
2690.698320  	0.019342 
2692.627136  	0.019477 
2694.555952  	0.019526 
2696.484768  	0.019629 
2698.413584  	0.019821 
2700.342400  	0.020008 
2702.271216  	0.020286 
2704.200032  	0.020538 
2706.128848  	0.020628 
2708.057664  	0.020831 
2709.986480  	0.020984 
2711.915296  	0.021152 
2713.844112  	0.021377 
2715.772928  	0.021530 
2717.701744  	0.021619 
2719.630560  	0.021748 
2721.559376  	0.022023 
2723.488192  	0.022223 
2725.417008  	0.022398 
2727.345824  	0.022660 
2729.274640  	0.022952 
2731.203456  	0.023056 
2733.132272  	0.023162 
2735.061088  	0.023492 
2736.989904  	0.023680 
2738.918720  	0.023813 
2740.847536  	0.023905 
2742.776352  	0.024060 
2744.705168  	0.024285 
2746.633984  	0.024411 
2748.562800  	0.024628 
2750.491616  	0.024807 
2752.420432  	0.024853 
2754.349248  	0.024798 
2756.278064  	0.024765 
2758.206880  	0.024754 
2760.135696  	0.024814 
2762.064512  	0.024800 
2763.993328  	0.024785 
2765.922144  	0.024854 
2767.850960  	0.024960 
2769.779776  	0.024991 
2771.708592  	0.024957 
2773.637408  	0.024908 
2775.566224  	0.024928 
2777.495040  	0.024872 
2779.423856  	0.024790 
2781.352672  	0.024869 
2783.281488  	0.024955 
2785.210304  	0.024925 
2787.139120  	0.024952 
2789.067936  	0.024935 
2790.996752  	0.025032 
2792.925568  	0.025110 
2794.854384  	0.025101 
2796.783200  	0.025142 
2798.712016  	0.025130 
2800.640832  	0.025182 
2802.569648  	0.025306 
2804.498464  	0.025332 
2806.427280  	0.025348 
2808.356096  	0.025491 
2810.284912  	0.025511 
2812.213728  	0.025356 
2814.142544  	0.025331 
2816.071360  	0.025324 
2818.000176  	0.025467 
2819.928992  	0.025645 
2821.857808  	0.025652 
2823.786624  	0.025612 
2825.715440  	0.025609 
2827.644256  	0.025648 
2829.573072  	0.025593 
2831.501888  	0.025630 
2833.430704  	0.025594 
2835.359520  	0.025489 
2837.288336  	0.025454 
2839.217152  	0.025410 
2841.145968  	0.025319 
2843.074784  	0.025238 
2845.003600  	0.025352 
2846.932416  	0.025388 
2848.861232  	0.025453 
2850.790048  	0.025492 
2852.718864  	0.025549 
2854.647680  	0.025674 
2856.576496  	0.025852 
2858.505312  	0.025982 
2860.434128  	0.026078 
2862.362944  	0.026218 
2864.291760  	0.026383 
2866.220576  	0.026522 
2868.149392  	0.026556 
2870.078208  	0.026787 
2872.007024  	0.027271 
2873.935840  	0.027867 
2875.864656  	0.028293 
2877.793472  	0.028603 
2879.722288  	0.029178 
2881.651104  	0.029727 
2883.579920  	0.030235 
2885.508736  	0.030718 
2887.437552  	0.031064 
2889.366368  	0.031195 
2891.295184  	0.031257 
2893.224000  	0.031311 
2895.152816  	0.031478 
2897.081632  	0.031650 
2899.010448  	0.031416 
2900.939264  	0.031210 
2902.868080  	0.031455 
2904.796896  	0.031805 
2906.725712  	0.032117 
2908.654528  	0.032558 
2910.583344  	0.032857 
2912.512160  	0.033147 
2914.440976  	0.033663 
2916.369792  	0.034385 
2918.298608  	0.035024 
2920.227424  	0.035609 
2922.156240  	0.036240 
2924.085056  	0.037029 
2926.013872  	0.037706 
2927.942688  	0.038469 
2929.871504  	0.039373 
2931.800320  	0.040210 
2933.729136  	0.041029 
2935.657952  	0.041889 
2937.586768  	0.042649 
2939.515584  	0.043180 
2941.444400  	0.043671 
2943.373216  	0.044244 
2945.302032  	0.044654 
2947.230848  	0.044781 
2949.159664  	0.044854 
2951.088480  	0.044797 
2953.017296  	0.044677 
2954.946112  	0.044473 
2956.874928  	0.044346 
2958.803744  	0.044198 
2960.732560  	0.044042 
2962.661376  	0.043883 
2964.590192  	0.043658 
2966.519008  	0.043410 
2968.447824  	0.043102 
2970.376640  	0.042702 
2972.305456  	0.042450 
2974.234272  	0.042644 
2976.163088  	0.042706 
2978.091904  	0.042601 
2980.020720  	0.042457 
2981.949536  	0.042365 
2983.878352  	0.042314 
2985.807168  	0.042163 
2987.735984  	0.042077 
2989.664800  	0.042257 
2991.593616  	0.042811 
2993.522432  	0.043348 
2995.451248  	0.043653 
2997.380064  	0.043997 
2999.308880  	0.044587 
3001.237696  	0.045250 
3003.166512  	0.045827 
3005.095328  	0.046276 
3007.024144  	0.046825 
3008.952960  	0.047554 
3010.881776  	0.048215 
3012.810592  	0.049052 
3014.739408  	0.049706 
3016.668224  	0.050156 
3018.597040  	0.050637 
3020.525856  	0.051206 
3022.454672  	0.051899 
3024.383488  	0.052536 
3026.312304  	0.053267 
3028.241120  	0.053973 
3030.169936  	0.054663 
3032.098752  	0.055548 
3034.027568  	0.056044 
3035.956384  	0.056617 
3037.885200  	0.057268 
3039.814016  	0.057951 
3041.742832  	0.058600 
3043.671648  	0.059414 
3045.600464  	0.060227 
3047.529280  	0.060833 
3049.458096  	0.061582 
3051.386912  	0.062314 
3053.315728  	0.062963 
3055.244544  	0.063752 
3057.173360  	0.064773 
3059.102176  	0.065628 
3061.030992  	0.066449 
3062.959808  	0.067315 
3064.888624  	0.068402 
3066.817440  	0.069481 
3068.746256  	0.070379 
3070.675072  	0.071221 
3072.603888  	0.072131 
3074.532704  	0.073242 
3076.461520  	0.074223 
3078.390336  	0.075039 
3080.319152  	0.076030 
3082.247968  	0.077062 
3084.176784  	0.077887 
3086.105600  	0.078746 
3088.034416  	0.079724 
3089.963232  	0.080467 
3091.892048  	0.081284 
3093.820864  	0.082137 
3095.749680  	0.083446 
3097.678496  	0.084738 
3099.607312  	0.085532 
3101.536128  	0.086660 
3103.464944  	0.087762 
3105.393760  	0.088539 
3107.322576  	0.089289 
3109.251392  	0.090143 
3111.180208  	0.090899 
3113.109024  	0.091459 
3115.037840  	0.092289 
3116.966656  	0.093178 
3118.895472  	0.093859 
3120.824288  	0.094647 
3122.753104  	0.095529 
3124.681920  	0.096023 
3126.610736  	0.096463 
3128.539552  	0.096944 
3130.468368  	0.097409 
3132.397184  	0.098260 
3134.326000  	0.098973 
3136.254816  	0.099453 
3138.183632  	0.100183 
3140.112448  	0.100808 
3142.041264  	0.101316 
3143.970080  	0.101961 
3145.898896  	0.102739 
3147.827712  	0.103357 
3149.756528  	0.103973 
3151.685344  	0.104563 
3153.614160  	0.105153 
3155.542976  	0.105761 
3157.471792  	0.106570 
3159.400608  	0.107341 
3161.329424  	0.107822 
3163.258240  	0.108343 
3165.187056  	0.108909 
3167.115872  	0.109160 
3169.044688  	0.109602 
3170.973504  	0.110221 
3172.902320  	0.110625 
3174.831136  	0.110873 
3176.759952  	0.111222 
3178.688768  	0.111760 
3180.617584  	0.111900 
3182.546400  	0.111900 
3184.475216  	0.112118 
3186.404032  	0.112598 
3188.332848  	0.112700 
3190.261664  	0.112558 
3192.190480  	0.112461 
3194.119296  	0.112427 
3196.048112  	0.112290 
3197.976928  	0.112633 
3199.905744  	0.112708 
3201.834560  	0.112561 
3203.763376  	0.112389 
3205.692192  	0.111923 
3207.621008  	0.111724 
3209.549824  	0.111804 
3211.478640  	0.111795 
3213.407456  	0.111749 
3215.336272  	0.111750 
3217.265088  	0.111244 
3219.193904  	0.111259 
3221.122720  	0.111399 
3223.051536  	0.110916 
3224.980352  	0.110465 
3226.909168  	0.110184 
3228.837984  	0.109942 
3230.766800  	0.109787 
3232.695616  	0.110079 
3234.624432  	0.110241 
3236.553248  	0.110298 
3238.482064  	0.110220 
3240.410880  	0.109971 
3242.339696  	0.109887 
3244.268512  	0.110024 
3246.197328  	0.110247 
3248.126144  	0.110063 
3250.054960  	0.110292 
3251.983776  	0.110581 
3253.912592  	0.111021 
3255.841408  	0.111221 
3257.770224  	0.111138 
3259.699040  	0.111204 
3261.627856  	0.111417 
3263.556672  	0.111587 
3265.485488  	0.111892 
3267.414304  	0.111923 
3269.343120  	0.111971 
3271.271936  	0.112299 
3273.200752  	0.112574 
3275.129568  	0.112720 
3277.058384  	0.112914 
3278.987200  	0.113002 
3280.916016  	0.113183 
3282.844832  	0.113371 
3284.773648  	0.113281 
3286.702464  	0.113232 
3288.631280  	0.113458 
3290.560096  	0.113617 
3292.488912  	0.113904 
3294.417728  	0.114029 
3296.346544  	0.114284 
3298.275360  	0.114616 
3300.204176  	0.114675 
3302.132992  	0.114768 
3304.061808  	0.115209 
3305.990624  	0.115384 
3307.919440  	0.115524 
3309.848256  	0.115878 
3311.777072  	0.116261 
3313.705888  	0.116533 
3315.634704  	0.116646 
3317.563520  	0.116901 
3319.492336  	0.117225 
3321.421152  	0.117405 
3323.349968  	0.117413 
3325.278784  	0.117456 
3327.207600  	0.117586 
3329.136416  	0.117508 
3331.065232  	0.117392 
3332.994048  	0.117484 
3334.922864  	0.117608 
3336.851680  	0.117664 
3338.780496  	0.117363 
3340.709312  	0.116702 
3342.638128  	0.116460 
3344.566944  	0.116123 
3346.495760  	0.115882 
3348.424576  	0.115697 
3350.353392  	0.115327 
3352.282208  	0.114875 
3354.211024  	0.114573 
3356.139840  	0.114402 
3358.068656  	0.113938 
3359.997472  	0.113351 
3361.926288  	0.113073 
3363.855104  	0.112629 
3365.783920  	0.112365 
3367.712736  	0.112078 
3369.641552  	0.111651 
3371.570368  	0.111027 
3373.499184  	0.110635 
3375.428000  	0.110422 
3377.356816  	0.110091 
3379.285632  	0.109662 
3381.214448  	0.109114 
3383.143264  	0.108674 
3385.072080  	0.108563 
3387.000896  	0.108115 
3388.929712  	0.107537 
3390.858528  	0.106973 
3392.787344  	0.106943 
3394.716160  	0.106411 
3396.644976  	0.105980 
3398.573792  	0.105430 
3400.502608  	0.104313 
3402.431424  	0.103530 
3404.360240  	0.103146 
3406.289056  	0.102584 
3408.217872  	0.102002 
3410.146688  	0.101382 
3412.075504  	0.100785 
3414.004320  	0.100485 
3415.933136  	0.100091 
3417.861952  	0.099209 
3419.790768  	0.098772 
3421.719584  	0.098825 
3423.648400  	0.097959 
3425.577216  	0.096683 
3427.506032  	0.095927 
3429.434848  	0.095346 
3431.363664  	0.094917 
3433.292480  	0.094245 
3435.221296  	0.093441 
3437.150112  	0.092664 
3439.078928  	0.091939 
3441.007744  	0.091124 
3442.936560  	0.090781 
3444.865376  	0.089804 
3446.794192  	0.089758 
3448.723008  	0.089732 
3450.651824  	0.087992 
3452.580640  	0.086861 
3454.509456  	0.086161 
3456.438272  	0.085438 
3458.367088  	0.084541 
3460.295904  	0.083738 
3462.224720  	0.083176 
3464.153536  	0.082216 
3466.082352  	0.081354 
3468.011168  	0.080808 
3469.939984  	0.079773 
3471.868800  	0.078426 
3473.797616  	0.077359 
3475.726432  	0.076821 
3477.655248  	0.075678 
3479.584064  	0.074594 
3481.512880  	0.074448 
3483.441696  	0.073845 
3485.370512  	0.072095 
3487.299328  	0.071258 
3489.228144  	0.070472 
3491.156960  	0.069174 
3493.085776  	0.068196 
3495.014592  	0.067524 
3496.943408  	0.067065 
3498.872224  	0.065912 
3500.801040  	0.064952 
3502.729856  	0.065024 
3504.658672  	0.064730 
3506.587488  	0.062670 
3508.516304  	0.061905 
3510.445120  	0.062115 
3512.373936  	0.060832 
3514.302752  	0.059769 
3516.231568  	0.058827 
3518.160384  	0.057860 
3520.089200  	0.056625 
3522.018016  	0.056006 
3523.946832  	0.056703 
3525.875648  	0.055827 
3527.804464  	0.055258 
3529.733280  	0.054820 
3531.662096  	0.053249 
3533.590912  	0.051452 
3535.519728  	0.050975 
3537.448544  	0.050834 
3539.377360  	0.049284 
3541.306176  	0.047835 
3543.234992  	0.047462 
3545.163808  	0.048490 
3547.092624  	0.048854 
3549.021440  	0.046505 
3550.950256  	0.044405 
3552.879072  	0.045095 
3554.807888  	0.043920 
3556.736704  	0.041858 
3558.665520  	0.041340 
3560.594336  	0.041292 
3562.523152  	0.040074 
3564.451968  	0.038973 
3566.380784  	0.041908 
3568.309600  	0.044559 
3570.238416  	0.040127 
3572.167232  	0.036537 
3574.096048  	0.035336 
3576.024864  	0.034694 
3577.953680  	0.033717 
3579.882496  	0.033133 
3581.811312  	0.032104 
3583.740128  	0.030344 
3585.668944  	0.029538 
3587.597760  	0.033077 
3589.526576  	0.032577 
3591.455392  	0.028079 
3593.384208  	0.026911 
3595.313024  	0.027661 
3597.241840  	0.026560 
3599.170656  	0.024771 
3601.099472  	0.024571 
3603.028288  	0.023079 
3604.957104  	0.020458 
3606.885920  	0.020418 
3608.814736  	0.022319 
3610.743552  	0.020322 
3612.672368  	0.019259 
3614.601184  	0.019572 
3616.530000  	0.017070 
3618.458816  	0.017411 
3620.387632  	0.018433 
3622.316448  	0.015138 
3624.245264  	0.011959 
3626.174080  	0.009461 
3628.102896  	0.010889 
3630.031712  	0.016829 
3631.960528  	0.011975 
3633.889344  	0.009687 
3635.818160  	0.008506 
3637.746976  	0.006749 
3639.675792  	0.005767 
3641.604608  	0.004970 
3643.533424  	0.003768 
3645.462240  	0.001496 
3647.391056  	0.003120 
3649.319872  	0.007271 
3651.248688  	0.008421 
3653.177504  	0.002313 
3655.106320  	-0.001003 
3657.035136  	0.001082 
3658.963952  	-0.000384 
3660.892768  	-0.001977 
3662.821584  	-0.003036 
3664.750400  	-0.004192 
3666.679216  	-0.005927 
3668.608032  	-0.006057 
3670.536848  	-0.001522 
3672.465664  	-0.004290 
3674.394480  	-0.006529 
3676.323296  	0.000351 
3678.252112  	-0.002208 
3680.180928  	-0.004358 
3682.109744  	-0.006140 
3684.038560  	-0.007352 
3685.967376  	-0.009042 
3687.896192  	-0.008363 
3689.825008  	-0.004147 
3691.753824  	-0.003596 
3693.682640  	-0.005754 
3695.611456  	-0.007389 
3697.540272  	-0.007763 
3699.469088  	-0.009129 
3701.397904  	-0.007818 
3703.326720  	-0.006448 
3705.255536  	-0.007970 
3707.184352  	-0.009287 
3709.113168  	-0.009401 
3711.041984  	-0.006155 
3712.970800  	-0.003297 
3714.899616  	-0.005683 
3716.828432  	-0.008208 
3718.757248  	-0.008308 
3720.686064  	-0.008450 
3722.614880  	-0.007461 
3724.543696  	-0.006956 
3726.472512  	-0.005808 
3728.401328  	-0.007282 
3730.330144  	-0.010722 
3732.258960  	-0.010091 
3734.187776  	-0.006667 
3736.116592  	-0.001803 
3738.045408  	-0.003636 
3739.974224  	-0.006763 
3741.903040  	-0.009701 
3743.831856  	-0.009215 
3745.760672  	-0.004190 
3747.689488  	-0.008380 
3749.618304  	-0.007529 
3751.547120  	-0.002484 
3753.475936  	-0.002861 
3755.404752  	-0.006848 
3757.333568  	-0.007877 
3759.262384  	-0.006382 
3761.191200  	-0.005888 
3763.120016  	-0.008588 
3765.048832  	-0.008046 
3766.977648  	-0.007315 
3768.906464  	-0.007762 
3770.835280  	-0.005796 
3772.764096  	-0.007104 
3774.692912  	-0.008675 
3776.621728  	-0.009596 
3778.550544  	-0.008840 
3780.479360  	-0.006652 
3782.408176  	-0.008002 
3784.336992  	-0.008012 
3786.265808  	-0.007233 
3788.194624  	-0.007948 
3790.123440  	-0.008452 
3792.052256  	-0.009098 
3793.981072  	-0.010274 
3795.909888  	-0.009050 
3797.838704  	-0.007536 
3799.767520  	-0.009621 
3801.696336  	-0.005258 
3803.625152  	-0.005291 
3805.553968  	-0.008950 
3807.482784  	-0.006001 
3809.411600  	-0.006534 
3811.340416  	-0.008812 
3813.269232  	-0.010735 
3815.198048  	-0.009737 
3817.126864  	-0.006209 
3819.055680  	-0.009039 
3820.984496  	-0.005683 
3822.913312  	-0.003645 
3824.842128  	-0.007701 
3826.770944  	-0.007518 
3828.699760  	-0.008084 
3830.628576  	-0.009086 
3832.557392  	-0.008464 
3834.486208  	-0.009324 
3836.415024  	-0.009390 
3838.343840  	-0.006603 
3840.272656  	-0.004416 
3842.201472  	-0.005531 
3844.130288  	-0.005669 
3846.059104  	-0.007140 
3847.987920  	-0.009440 
3849.916736  	-0.011173 
3851.845552  	-0.011564 
3853.774368  	-0.002669 
3855.703184  	-0.001859 
3857.632000  	-0.005333 
3859.560816  	-0.008141 
3861.489632  	-0.008685 
3863.418448  	-0.007346 
3865.347264  	-0.005172 
3867.276080  	-0.008091 
3869.204896  	-0.007885 
3871.133712  	-0.003949 
3873.062528  	-0.006491 
3874.991344  	-0.005488 
3876.920160  	-0.008205 
3878.848976  	-0.009662 
3880.777792  	-0.005784 
3882.706608  	-0.006043 
3884.635424  	-0.007435 
3886.564240  	-0.005091 
3888.493056  	-0.008438 
3890.421872  	-0.008994 
3892.350688  	-0.005695 
3894.279504  	-0.006596 
3896.208320  	-0.009082 
3898.137136  	-0.009263 
3900.065952  	-0.006737 
3901.994768  	-0.005923 
3903.923584  	-0.004597 
3905.852400  	-0.004060 
3907.781216  	-0.006787 
3909.710032  	-0.008649 
3911.638848  	-0.009031 
3913.567664  	-0.009282 
3915.496480  	-0.008779 
3917.425296  	-0.006692 
3919.354112  	-0.006598 
3921.282928  	-0.007277 
3923.211744  	-0.007651 
3925.140560  	-0.006314 
3927.069376  	-0.007368 
3928.998192  	-0.008381 
3930.927008  	-0.007347 
3932.855824  	-0.006001 
3934.784640  	-0.006984 
3936.713456  	-0.008248 
3938.642272  	-0.008560 
3940.571088  	-0.008867 
3942.499904  	-0.007081 
3944.428720  	-0.006564 
3946.357536  	-0.007925 
3948.286352  	-0.007142 
3950.215168  	-0.006928 
3952.143984  	-0.008033 
3954.072800  	-0.008754 
3956.001616  	-0.008557 
3957.930432  	-0.008141 
3959.859248  	-0.008075 
3961.788064  	-0.007861 
3963.716880  	-0.007894 
3965.645696  	-0.008436 
3967.574512  	-0.008716 
3969.503328  	-0.008651 
3971.432144  	-0.008328 
3973.360960  	-0.007938 
3975.289776  	-0.007424 
3977.218592  	-0.007787 
3979.147408  	-0.008492 
3981.076224  	-0.008627 
3983.005040  	-0.008541 
3984.933856  	-0.008389 
3986.862672  	-0.008206 
3988.791488  	-0.008273 
3990.720304  	-0.007911 
3992.649120  	-0.008017 
3994.577936  	-0.008164 
3996.506752  	-0.008290 
3998.435568  	-0.008578 
4000.364384  	-0.008494 