##TITLE=No Description
##DATA TYPE=INFRARED SPECTRUM
##XUNITS=1/CM
##YUNITS=Abs
399.264912  	0.572609 
401.193728  	0.545979 
403.122544  	0.554316 
405.051360  	0.572148 
406.980176  	0.565064 
408.908992  	0.561077 
410.837808  	0.567438 
412.766624  	0.548529 
414.695440  	0.533361 
416.624256  	0.536989 
418.553072  	0.558619 
420.481888  	0.553457 
422.410704  	0.552800 
424.339520  	0.552699 
426.268336  	0.550160 
428.197152  	0.538445 
430.125968  	0.532619 
432.054784  	0.529395 
433.983600  	0.528875 
435.912416  	0.523009 
437.841232  	0.519210 
439.770048  	0.521149 
441.698864  	0.529514 
443.627680  	0.528417 
445.556496  	0.526912 
447.485312  	0.521888 
449.414128  	0.519211 
451.342944  	0.519875 
453.271760  	0.519577 
455.200576  	0.515148 
457.129392  	0.518849 
459.058208  	0.520429 
460.987024  	0.524344 
462.915840  	0.520697 
464.844656  	0.518595 
466.773472  	0.515904 
468.702288  	0.516351 
470.631104  	0.519883 
472.559920  	0.529485 
474.488736  	0.522860 
476.417552  	0.519871 
478.346368  	0.517815 
480.275184  	0.516456 
482.204000  	0.519006 
484.132816  	0.519372 
486.061632  	0.515260 
487.990448  	0.514156 
489.919264  	0.516133 
491.848080  	0.515654 
493.776896  	0.512155 
495.705712  	0.513187 
497.634528  	0.509117 
499.563344  	0.504637 
501.492160  	0.504228 
503.420976  	0.503601 
505.349792  	0.499021 
507.278608  	0.501983 
509.207424  	0.502622 
511.136240  	0.501759 
513.065056  	0.502261 
514.993872  	0.510029 
516.922688  	0.514692 
518.851504  	0.515178 
520.780320  	0.512332 
522.709136  	0.511171 
524.637952  	0.510906 
526.566768  	0.511106 
528.495584  	0.506726 
530.424400  	0.503360 
532.353216  	0.498561 
534.282032  	0.493692 
536.210848  	0.486328 
538.139664  	0.479443 
540.068480  	0.472924 
541.997296  	0.469200 
543.926112  	0.465730 
545.854928  	0.463445 
547.783744  	0.459970 
549.712560  	0.458045 
551.641376  	0.453994 
553.570192  	0.450616 
555.499008  	0.447654 
557.427824  	0.445695 
559.356640  	0.441940 
561.285456  	0.438578 
563.214272  	0.434923 
565.143088  	0.431235 
567.071904  	0.428036 
569.000720  	0.425604 
570.929536  	0.421633 
572.858352  	0.418671 
574.787168  	0.416107 
576.715984  	0.413286 
578.644800  	0.409020 
580.573616  	0.404450 
582.502432  	0.398667 
584.431248  	0.394647 
586.360064  	0.390646 
588.288880  	0.387450 
590.217696  	0.385689 
592.146512  	0.384360 
594.075328  	0.381431 
596.004144  	0.379549 
597.932960  	0.377635 
599.861776  	0.376567 
601.790592  	0.375541 
603.719408  	0.374532 
605.648224  	0.373466 
607.577040  	0.372011 
609.505856  	0.370056 
611.434672  	0.368922 
613.363488  	0.366849 
615.292304  	0.366062 
617.221120  	0.364799 
619.149936  	0.363334 
621.078752  	0.362089 
623.007568  	0.361401 
624.936384  	0.359979 
626.865200  	0.359143 
628.794016  	0.358644 
630.722832  	0.358757 
632.651648  	0.358820 
634.580464  	0.359492 
636.509280  	0.360388 
638.438096  	0.360513 
640.366912  	0.359584 
642.295728  	0.358232 
644.224544  	0.356251 
646.153360  	0.353614 
648.082176  	0.349338 
650.010992  	0.345719 
651.939808  	0.341940 
653.868624  	0.338018 
655.797440  	0.334059 
657.726256  	0.330364 
659.655072  	0.326139 
661.583888  	0.322096 
663.512704  	0.317610 
665.441520  	0.313968 
667.370336  	0.311950 
669.299152  	0.306930 
671.227968  	0.300245 
673.156784  	0.295872 
675.085600  	0.292901 
677.014416  	0.290675 
678.943232  	0.288405 
680.872048  	0.286892 
682.800864  	0.285013 
684.729680  	0.283242 
686.658496  	0.281804 
688.587312  	0.281084 
690.516128  	0.280474 
692.444944  	0.279432 
694.373760  	0.277815 
696.302576  	0.276599 
698.231392  	0.274505 
700.160208  	0.271842 
702.089024  	0.268821 
704.017840  	0.266122 
705.946656  	0.263318 
707.875472  	0.260733 
709.804288  	0.259040 
711.733104  	0.257618 
713.661920  	0.256033 
715.590736  	0.254764 
717.519552  	0.254353 
719.448368  	0.255171 
721.377184  	0.255808 
723.306000  	0.256461 
725.234816  	0.257125 
727.163632  	0.256310 
729.092448  	0.253663 
731.021264  	0.250005 
732.950080  	0.245874 
734.878896  	0.242102 
736.807712  	0.238614 
738.736528  	0.236154 
740.665344  	0.234342 
742.594160  	0.233166 
744.522976  	0.231476 
746.451792  	0.229643 
748.380608  	0.228251 
750.309424  	0.227227 
752.238240  	0.226211 
754.167056  	0.225607 
756.095872  	0.224835 
758.024688  	0.223838 
759.953504  	0.223348 
761.882320  	0.224845 
763.811136  	0.226172 
765.739952  	0.223985 
767.668768  	0.219791 
769.597584  	0.216835 
771.526400  	0.216381 
773.455216  	0.218619 
775.384032  	0.223194 
777.312848  	0.229814 
779.241664  	0.234473 
781.170480  	0.233228 
783.099296  	0.226897 
785.028112  	0.219993 
786.956928  	0.213794 
788.885744  	0.208624 
790.814560  	0.204977 
792.743376  	0.203362 
794.672192  	0.202822 
796.601008  	0.201356 
798.529824  	0.197642 
800.458640  	0.192979 
802.387456  	0.189552 
804.316272  	0.187726 
806.245088  	0.186926 
808.173904  	0.186178 
810.102720  	0.185722 
812.031536  	0.185862 
813.960352  	0.186111 
815.889168  	0.186827 
817.817984  	0.188158 
819.746800  	0.189513 
821.675616  	0.190886 
823.604432  	0.192066 
825.533248  	0.192926 
827.462064  	0.193788 
829.390880  	0.193745 
831.319696  	0.193502 
833.248512  	0.192714 
835.177328  	0.191161 
837.106144  	0.188102 
839.034960  	0.184080 
840.963776  	0.179546 
842.892592  	0.174858 
844.821408  	0.170044 
846.750224  	0.165788 
848.679040  	0.162563 
850.607856  	0.159931 
852.536672  	0.158295 
854.465488  	0.157204 
856.394304  	0.156206 
858.323120  	0.154829 
860.251936  	0.153464 
862.180752  	0.152137 
864.109568  	0.149895 
866.038384  	0.147404 
867.967200  	0.144897 
869.896016  	0.143069 
871.824832  	0.142341 
873.753648  	0.142807 
875.682464  	0.144040 
877.611280  	0.146280 
879.540096  	0.149046 
881.468912  	0.151948 
883.397728  	0.155116 
885.326544  	0.157803 
887.255360  	0.159412 
889.184176  	0.159963 
891.112992  	0.159492 
893.041808  	0.157875 
894.970624  	0.154840 
896.899440  	0.150122 
898.828256  	0.144424 
900.757072  	0.138682 
902.685888  	0.133876 
904.614704  	0.131068 
906.543520  	0.130850 
908.472336  	0.132900 
910.401152  	0.135998 
912.329968  	0.139487 
914.258784  	0.142770 
916.187600  	0.145896 
918.116416  	0.148599 
920.045232  	0.150683 
921.974048  	0.152363 
923.902864  	0.153729 
925.831680  	0.154996 
927.760496  	0.156650 
929.689312  	0.158284 
931.618128  	0.160133 
933.546944  	0.161468 
935.475760  	0.161889 
937.404576  	0.161482 
939.333392  	0.160526 
941.262208  	0.159931 
943.191024  	0.160898 
945.119840  	0.164504 
947.048656  	0.171126 
948.977472  	0.181236 
950.906288  	0.194453 
952.835104  	0.210659 
954.763920  	0.228924 
956.692736  	0.247273 
958.621552  	0.263743 
960.550368  	0.275519 
962.479184  	0.282172 
964.408000  	0.282306 
966.336816  	0.276491 
968.265632  	0.264743 
970.194448  	0.248976 
972.123264  	0.230789 
974.052080  	0.211818 
975.980896  	0.193388 
977.909712  	0.176273 
979.838528  	0.161038 
981.767344  	0.148411 
983.696160  	0.138927 
985.624976  	0.132900 
987.553792  	0.130544 
989.482608  	0.131709 
991.411424  	0.136423 
993.340240  	0.143801 
995.269056  	0.152455 
997.197872  	0.161706 
999.126688  	0.170862 
1001.055504  	0.180509 
1002.984320  	0.189943 
1004.913136  	0.199369 
1006.841952  	0.208688 
1008.770768  	0.217484 
1010.699584  	0.224598 
1012.628400  	0.229734 
1014.557216  	0.233155 
1016.486032  	0.234715 
1018.414848  	0.234854 
1020.343664  	0.234489 
1022.272480  	0.234083 
1024.201296  	0.233660 
1026.130112  	0.232995 
1028.058928  	0.233796 
1029.987744  	0.236475 
1031.916560  	0.240488 
1033.845376  	0.245598 
1035.774192  	0.252757 
1037.703008  	0.262147 
1039.631824  	0.275361 
1041.560640  	0.292922 
1043.489456  	0.314697 
1045.418272  	0.337781 
1047.347088  	0.358891 
1049.275904  	0.372462 
1051.204720  	0.377961 
1053.133536  	0.376368 
1055.062352  	0.370393 
1056.991168  	0.362527 
1058.919984  	0.357098 
1060.848800  	0.353197 
1062.777616  	0.350266 
1064.706432  	0.346783 
1066.635248  	0.342937 
1068.564064  	0.336901 
1070.492880  	0.328967 
1072.421696  	0.320820 
1074.350512  	0.316128 
1076.279328  	0.316531 
1078.208144  	0.321966 
1080.136960  	0.328963 
1082.065776  	0.334133 
1083.994592  	0.333416 
1085.923408  	0.326676 
1087.852224  	0.314625 
1089.781040  	0.300805 
1091.709856  	0.285352 
1093.638672  	0.268205 
1095.567488  	0.250083 
1097.496304  	0.232638 
1099.425120  	0.215819 
1101.353936  	0.199983 
1103.282752  	0.185310 
1105.211568  	0.172003 
1107.140384  	0.159869 
1109.069200  	0.148518 
1110.998016  	0.138570 
1112.926832  	0.129848 
1114.855648  	0.121953 
1116.784464  	0.114212 
1118.713280  	0.106489 
1120.642096  	0.099156 
1122.570912  	0.092514 
1124.499728  	0.086482 
1126.428544  	0.081145 
1128.357360  	0.076458 
1130.286176  	0.072549 
1132.214992  	0.069528 
1134.143808  	0.067366 
1136.072624  	0.065567 
1138.001440  	0.063812 
1139.930256  	0.062150 
1141.859072  	0.060573 
1143.787888  	0.058726 
1145.716704  	0.056930 
1147.645520  	0.055317 
1149.574336  	0.054451 
1151.503152  	0.053806 
1153.431968  	0.053653 
1155.360784  	0.054002 
1157.289600  	0.055277 
1159.218416  	0.056904 
1161.147232  	0.058993 
1163.076048  	0.061488 
1165.004864  	0.064044 
1166.933680  	0.066376 
1168.862496  	0.068800 
1170.791312  	0.071533 
1172.720128  	0.074757 
1174.648944  	0.078450 
1176.577760  	0.082270 
1178.506576  	0.086182 
1180.435392  	0.090348 
1182.364208  	0.094337 
1184.293024  	0.098840 
1186.221840  	0.104286 
1188.150656  	0.110303 
1190.079472  	0.117040 
1192.008288  	0.125039 
1193.937104  	0.134200 
1195.865920  	0.144359 
1197.794736  	0.155356 
1199.723552  	0.167278 
1201.652368  	0.179077 
1203.581184  	0.190063 
1205.510000  	0.200532 
1207.438816  	0.209665 
1209.367632  	0.217527 
1211.296448  	0.223657 
1213.225264  	0.228020 
1215.154080  	0.230317 
1217.082896  	0.231294 
1219.011712  	0.230989 
1220.940528  	0.229600 
1222.869344  	0.227226 
1224.798160  	0.224439 
1226.726976  	0.220448 
1228.655792  	0.215502 
1230.584608  	0.209913 
1232.513424  	0.203918 
1234.442240  	0.197237 
1236.371056  	0.190218 
1238.299872  	0.182711 
1240.228688  	0.174435 
1242.157504  	0.166178 
1244.086320  	0.158324 
1246.015136  	0.150219 
1247.943952  	0.142440 
1249.872768  	0.134747 
1251.801584  	0.127370 
1253.730400  	0.120397 
1255.659216  	0.113696 
1257.588032  	0.107335 
1259.516848  	0.101631 
1261.445664  	0.096062 
1263.374480  	0.090889 
1265.303296  	0.086628 
1267.232112  	0.083303 
1269.160928  	0.081010 
1271.089744  	0.079559 
1273.018560  	0.078844 
1274.947376  	0.078983 
1276.876192  	0.079999 
1278.805008  	0.080831 
1280.733824  	0.080741 
1282.662640  	0.079188 
1284.591456  	0.077078 
1286.520272  	0.075374 
1288.449088  	0.074461 
1290.377904  	0.074315 
1292.306720  	0.075346 
1294.235536  	0.076536 
1296.164352  	0.076662 
1298.093168  	0.074604 
1300.021984  	0.071572 
1301.950800  	0.068266 
1303.879616  	0.064713 
1305.808432  	0.060845 
1307.737248  	0.056851 
1309.666064  	0.052862 
1311.594880  	0.050270 
1313.523696  	0.048397 
1315.452512  	0.046840 
1317.381328  	0.046559 
1319.310144  	0.046796 
1321.238960  	0.046584 
1323.167776  	0.047065 
1325.096592  	0.047948 
1327.025408  	0.048468 
1328.954224  	0.048385 
1330.883040  	0.047583 
1332.811856  	0.046082 
1334.740672  	0.045117 
1336.669488  	0.045728 
1338.598304  	0.047699 
1340.527120  	0.047018 
1342.455936  	0.043695 
1344.384752  	0.042829 
1346.313568  	0.043388 
1348.242384  	0.044333 
1350.171200  	0.045554 
1352.100016  	0.047218 
1354.028832  	0.049529 
1355.957648  	0.051765 
1357.886464  	0.053818 
1359.815280  	0.056743 
1361.744096  	0.061365 
1363.672912  	0.064082 
1365.601728  	0.063970 
1367.530544  	0.065959 
1369.459360  	0.068413 
1371.388176  	0.069449 
1373.316992  	0.070891 
1375.245808  	0.069617 
1377.174624  	0.065593 
1379.103440  	0.062330 
1381.032256  	0.058892 
1382.961072  	0.056112 
1384.889888  	0.054943 
1386.818704  	0.055533 
1388.747520  	0.052822 
1390.676336  	0.049175 
1392.605152  	0.047764 
1394.533968  	0.048855 
1396.462784  	0.049442 
1398.391600  	0.049099 
1400.320416  	0.047782 
1402.249232  	0.046624 
1404.178048  	0.048365 
1406.106864  	0.049285 
1408.035680  	0.049602 
1409.964496  	0.051511 
1411.893312  	0.053918 
1413.822128  	0.056159 
1415.750944  	0.059994 
1417.679760  	0.064409 
1419.608576  	0.066023 
1421.537392  	0.063830 
1423.466208  	0.063451 
1425.395024  	0.061052 
1427.323840  	0.057790 
1429.252656  	0.056029 
1431.181472  	0.053948 
1433.110288  	0.052570 
1435.039104  	0.053610 
1436.967920  	0.056479 
1438.896736  	0.056025 
1440.825552  	0.055964 
1442.754368  	0.056779 
1444.683184  	0.057229 
1446.612000  	0.058441 
1448.540816  	0.059293 
1450.469632  	0.058903 
1452.398448  	0.059455 
1454.327264  	0.060867 
1456.256080  	0.065187 
1458.184896  	0.066470 
1460.113712  	0.060910 
1462.042528  	0.057963 
1463.971344  	0.058331 
1465.900160  	0.058919 
1467.828976  	0.058123 
1469.757792  	0.059485 
1471.686608  	0.065829 
1473.615424  	0.075200 
1475.544240  	0.078652 
1477.473056  	0.082328 
1479.401872  	0.085086 
1481.330688  	0.089773 
1483.259504  	0.092443 
1485.188320  	0.094932 
1487.117136  	0.098558 
1489.045952  	0.102440 
1490.974768  	0.099502 
1492.903584  	0.093107 
1494.832400  	0.088891 
1496.761216  	0.084919 
1498.690032  	0.077599 
1500.618848  	0.070305 
1502.547664  	0.064119 
1504.476480  	0.060999 
1506.405296  	0.065123 
1508.334112  	0.064658 
1510.262928  	0.057085 
1512.191744  	0.052385 
1514.120560  	0.051150 
1516.049376  	0.054300 
1517.978192  	0.055750 
1519.907008  	0.056864 
1521.835824  	0.063825 
1523.764640  	0.065288 
1525.693456  	0.068245 
1527.622272  	0.069841 
1529.551088  	0.067692 
1531.479904  	0.066019 
1533.408720  	0.065373 
1535.337536  	0.060094 
1537.266352  	0.056528 
1539.195168  	0.057364 
1541.123984  	0.057179 
1543.052800  	0.054013 
1544.981616  	0.050659 
1546.910432  	0.045539 
1548.839248  	0.045099 
1550.768064  	0.046298 
1552.696880  	0.045223 
1554.625696  	0.047570 
1556.554512  	0.048826 
1558.483328  	0.055958 
1560.412144  	0.058221 
1562.340960  	0.055666 
1564.269776  	0.057755 
1566.198592  	0.062283 
1568.127408  	0.066279 
1570.056224  	0.074806 
1571.985040  	0.078221 
1573.913856  	0.081272 
1575.842672  	0.087155 
1577.771488  	0.090796 
1579.700304  	0.088190 
1581.629120  	0.087042 
1583.557936  	0.086351 
1585.486752  	0.087462 
1587.415568  	0.090012 
1589.344384  	0.095101 
1591.273200  	0.101376 
1593.202016  	0.109455 
1595.130832  	0.118171 
1597.059648  	0.126650 
1598.988464  	0.133567 
1600.917280  	0.140917 
1602.846096  	0.146433 
1604.774912  	0.149988 
1606.703728  	0.151174 
1608.632544  	0.151763 
1610.561360  	0.149526 
1612.490176  	0.147101 
1614.418992  	0.144751 
1616.347808  	0.146749 
1618.276624  	0.148568 
1620.205440  	0.149373 
1622.134256  	0.152997 
1624.063072  	0.161532 
1625.991888  	0.166209 
1627.920704  	0.174594 
1629.849520  	0.183099 
1631.778336  	0.190111 
1633.707152  	0.196406 
1635.635968  	0.210361 
1637.564784  	0.220565 
1639.493600  	0.221821 
1641.422416  	0.223921 
1643.351232  	0.226060 
1645.280048  	0.227811 
1647.208864  	0.234718 
1649.137680  	0.231909 
1651.066496  	0.226901 
1652.995312  	0.229170 
1654.924128  	0.230410 
1656.852944  	0.222497 
1658.781760  	0.217534 
1660.710576  	0.213791 
1662.639392  	0.211078 
1664.568208  	0.205274 
1666.497024  	0.199494 
1668.425840  	0.195678 
1670.354656  	0.191063 
1672.283472  	0.183723 
1674.212288  	0.178298 
1676.141104  	0.173946 
1678.069920  	0.169469 
1679.998736  	0.168094 
1681.927552  	0.166331 
1683.856368  	0.167299 
1685.785184  	0.166619 
1687.714000  	0.162834 
1689.642816  	0.161469 
1691.571632  	0.158568 
1693.500448  	0.156317 
1695.429264  	0.157596 
1697.358080  	0.159702 
1699.286896  	0.156727 
1701.215712  	0.156604 
1703.144528  	0.152540 
1705.073344  	0.150169 
1707.002160  	0.145589 
1708.930976  	0.139437 
1710.859792  	0.133191 
1712.788608  	0.127154 
1714.717424  	0.121077 
1716.646240  	0.112936 
1718.575056  	0.097927 
1720.503872  	0.084027 
1722.432688  	0.073927 
1724.361504  	0.062857 
1726.290320  	0.053181 
1728.219136  	0.046577 
1730.147952  	0.041970 
1732.076768  	0.037515 
1734.005584  	0.034048 
1735.934400  	0.026922 
1737.863216  	0.023713 
1739.792032  	0.021190 
1741.720848  	0.019133 
1743.649664  	0.018523 
1745.578480  	0.017091 
1747.507296  	0.016573 
1749.436112  	0.016786 
1751.364928  	0.014484 
1753.293744  	0.010783 
1755.222560  	0.009322 
1757.151376  	0.010306 
1759.080192  	0.009010 
1761.009008  	0.008850 
1762.937824  	0.007807 
1764.866640  	0.006115 
1766.795456  	0.006455 
1768.724272  	0.007529 
1770.653088  	0.007219 
1772.581904  	0.008210 
1774.510720  	0.006707 
1776.439536  	0.005345 
1778.368352  	0.004279 
1780.297168  	0.004863 
1782.225984  	0.003828 
1784.154800  	0.003612 
1786.083616  	0.002984 
1788.012432  	0.002418 
1789.941248  	0.003747 
1791.870064  	0.005848 
1793.798880  	0.004422 
1795.727696  	0.003592 
1797.656512  	0.002529 
1799.585328  	0.002676 
1801.514144  	0.003426 
1803.442960  	0.002241 
1805.371776  	0.000964 
1807.300592  	0.000976 
1809.229408  	0.001031 
1811.158224  	0.001405 
1813.087040  	0.000381 
1815.015856  	-0.000507 
1816.944672  	-0.000117 
1818.873488  	0.000106 
1820.802304  	-0.000020 
1822.731120  	0.000647 
1824.659936  	0.001284 
1826.588752  	0.000965 
1828.517568  	0.001091 
1830.446384  	0.002018 
1832.375200  	0.000176 
1834.304016  	-0.000427 
1836.232832  	-0.000236 
1838.161648  	0.000069 
1840.090464  	-0.000500 
1842.019280  	0.000137 
1843.948096  	0.001460 
1845.876912  	0.001554 
1847.805728  	0.000356 
1849.734544  	-0.000651 
1851.663360  	-0.001439 
1853.592176  	-0.001057 
1855.520992  	-0.001103 
1857.449808  	-0.000897 
1859.378624  	-0.001231 
1861.307440  	-0.001220 
1863.236256  	-0.001586 
1865.165072  	-0.000900 
1867.093888  	0.000524 
1869.022704  	0.002070 
1870.951520  	0.000056 
1872.880336  	-0.001329 
1874.809152  	-0.002054 
1876.737968  	-0.002380 
1878.666784  	-0.002472 
1880.595600  	-0.002171 
1882.524416  	-0.002102 
1884.453232  	-0.001743 
1886.382048  	-0.002153 
1888.310864  	-0.001167 
1890.239680  	-0.000625 
1892.168496  	-0.001070 
1894.097312  	-0.001082 
1896.026128  	-0.001434 
1897.954944  	-0.002241 
1899.883760  	-0.002090 
1901.812576  	-0.001998 
1903.741392  	-0.001925 
1905.670208  	-0.002347 
1907.599024  	-0.001832 
1909.527840  	-0.001201 
1911.456656  	-0.000818 
1913.385472  	-0.001439 
1915.314288  	-0.001363 
1917.243104  	-0.000672 
1919.171920  	-0.000040 
1921.100736  	-0.000550 
1923.029552  	-0.000255 
1924.958368  	-0.002310 
1926.887184  	-0.003005 
1928.816000  	-0.003601 
1930.744816  	-0.003068 
1932.673632  	-0.002621 
1934.602448  	-0.002179 
1936.531264  	-0.002562 
1938.460080  	-0.002178 
1940.388896  	-0.001822 
1942.317712  	-0.000893 
1944.246528  	-0.002413 
1946.175344  	-0.002581 
1948.104160  	-0.002465 
1950.032976  	-0.001834 
1951.961792  	-0.002732 
1953.890608  	-0.003487 
1955.819424  	-0.004061 
1957.748240  	-0.003801 
1959.677056  	-0.003779 
1961.605872  	-0.002641 
1963.534688  	-0.002228 
1965.463504  	-0.000752 
1967.392320  	-0.001264 
1969.321136  	-0.002312 
1971.249952  	-0.003924 
1973.178768  	-0.004125 
1975.107584  	-0.003637 
1977.036400  	-0.002820 
1978.965216  	-0.002746 
1980.894032  	-0.002185 
1982.822848  	-0.002980 
1984.751664  	-0.002884 
1986.680480  	-0.002539 
1988.609296  	-0.001351 
1990.538112  	-0.001051 
1992.466928  	-0.000856 
1994.395744  	-0.002734 
1996.324560  	-0.003022 
1998.253376  	-0.002556 
2000.182192  	-0.002377 
2002.111008  	-0.002863 
2004.039824  	-0.002207 
2005.968640  	-0.003033 
2007.897456  	-0.002797 
2009.826272  	-0.002285 
2011.755088  	-0.001652 
2013.683904  	-0.003118 
2015.612720  	-0.002629 
2017.541536  	-0.001291 
2019.470352  	-0.001063 
2021.399168  	-0.001706 
2023.327984  	-0.001314 
2025.256800  	-0.001550 
2027.185616  	-0.000402 
2029.114432  	-0.000563 
2031.043248  	-0.000440 
2032.972064  	-0.000911 
2034.900880  	-0.000686 
2036.829696  	-0.000585 
2038.758512  	0.000134 
2040.687328  	-0.000395 
2042.616144  	-0.000239 
2044.544960  	-0.000829 
2046.473776  	-0.000671 
2048.402592  	0.000048 
2050.331408  	0.000613 
2052.260224  	0.000178 
2054.189040  	0.000062 
2056.117856  	-0.000678 
2058.046672  	-0.000604 
2059.975488  	-0.000190 
2061.904304  	0.000889 
2063.833120  	0.000637 
2065.761936  	0.000687 
2067.690752  	0.000195 
2069.619568  	0.000050 
2071.548384  	-0.000402 
2073.477200  	0.000152 
2075.406016  	0.000597 
2077.334832  	0.001042 
2079.263648  	0.001149 
2081.192464  	0.000975 
2083.121280  	0.000424 
2085.050096  	0.000547 
2086.978912  	0.000490 
2088.907728  	0.000996 
2090.836544  	0.001262 
2092.765360  	0.001283 
2094.694176  	0.001122 
2096.622992  	0.001426 
2098.551808  	0.001348 
2100.480624  	0.001487 
2102.409440  	0.001309 
2104.338256  	0.001441 
2106.267072  	0.001057 
2108.195888  	0.001295 
2110.124704  	0.001617 
2112.053520  	0.001687 
2113.982336  	0.001625 
2115.911152  	0.001626 
2117.839968  	0.000972 
2119.768784  	0.000959 
2121.697600  	0.001126 
2123.626416  	0.001001 
2125.555232  	0.000464 
2127.484048  	0.000128 
2129.412864  	0.000184 
2131.341680  	0.001062 
2133.270496  	0.001493 
2135.199312  	0.001645 
2137.128128  	0.001622 
2139.056944  	0.002605 
2140.985760  	0.002673 
2142.914576  	0.002448 
2144.843392  	0.001307 
2146.772208  	0.001624 
2148.701024  	0.001943 
2150.629840  	0.001933 
2152.558656  	0.002232 
2154.487472  	0.002896 
2156.416288  	0.002436 
2158.345104  	0.005547 
2160.273920  	0.008227 
2162.202736  	0.006952 
2164.131552  	0.005359 
2166.060368  	0.005669 
2167.989184  	0.004288 
2169.918000  	0.003552 
2171.846816  	0.003320 
2173.775632  	0.004237 
2175.704448  	0.004140 
2177.633264  	0.003813 
2179.562080  	0.002918 
2181.490896  	0.003815 
2183.419712  	0.004375 
2185.348528  	0.003254 
2187.277344  	0.002273 
2189.206160  	0.002916 
2191.134976  	0.002952 
2193.063792  	0.002777 
2194.992608  	0.002627 
2196.921424  	0.002396 
2198.850240  	0.001443 
2200.779056  	0.001016 
2202.707872  	0.000971 
2204.636688  	0.001828 
2206.565504  	0.001570 
2208.494320  	0.001603 
2210.423136  	0.001858 
2212.351952  	0.001940 
2214.280768  	0.000958 
2216.209584  	0.000711 
2218.138400  	0.000702 
2220.067216  	0.000616 
2221.996032  	0.000323 
2223.924848  	0.000994 
2225.853664  	0.001105 
2227.782480  	0.001135 
2229.711296  	0.000270 
2231.640112  	0.000417 
2233.568928  	0.000583 
2235.497744  	0.000210 
2237.426560  	0.000160 
2239.355376  	0.000618 
2241.284192  	-0.000005 
2243.213008  	-0.000140 
2245.141824  	-0.000145 
2247.070640  	-0.000080 
2248.999456  	-0.000355 
2250.928272  	-0.000022 
2252.857088  	0.000056 
2254.785904  	0.000320 
2256.714720  	0.000935 
2258.643536  	0.001203 
2260.572352  	0.001066 
2262.501168  	0.001093 
2264.429984  	0.001037 
2266.358800  	0.001147 
2268.287616  	0.001020 
2270.216432  	0.000845 
2272.145248  	0.000680 
2274.074064  	0.001008 
2276.002880  	0.000882 
2277.931696  	0.001258 
2279.860512  	0.001461 
2281.789328  	0.001570 
2283.718144  	0.001414 
2285.646960  	0.001911 
2287.575776  	0.002096 
2289.504592  	0.002249 
2291.433408  	0.002368 
2293.362224  	0.002890 
2295.291040  	0.003215 
2297.219856  	0.003692 
2299.148672  	0.003853 
2301.077488  	0.004283 
2303.006304  	0.005091 
2304.935120  	0.005911 
2306.863936  	0.006366 
2308.792752  	0.006867 
2310.721568  	0.007352 
2312.650384  	0.007429 
2314.579200  	0.006886 
2316.508016  	0.007339 
2318.436832  	0.008247 
2320.365648  	0.009196 
2322.294464  	0.009640 
2324.223280  	0.008886 
2326.152096  	0.007352 
2328.080912  	0.006688 
2330.009728  	0.006858 
2331.938544  	0.006532 
2333.867360  	0.005267 
2335.796176  	0.004548 
2337.724992  	0.004525 
2339.653808  	0.005008 
2341.582624  	0.005373 
2343.511440  	0.006519 
2345.440256  	0.007536 
2347.369072  	0.007040 
2349.297888  	0.006425 
2351.226704  	0.006248 
2353.155520  	0.005884 
2355.084336  	0.006153 
2357.013152  	0.006711 
2358.941968  	0.007492 
2360.870784  	0.007456 
2362.799600  	0.007474 
2364.728416  	0.007574 
2366.657232  	0.007515 
2368.586048  	0.007165 
2370.514864  	0.007161 
2372.443680  	0.007114 
2374.372496  	0.007191 
2376.301312  	0.006762 
2378.230128  	0.006038 
2380.158944  	0.004942 
2382.087760  	0.003703 
2384.016576  	0.002246 
2385.945392  	0.001261 
2387.874208  	0.000828 
2389.803024  	0.000319 
2391.731840  	-0.000157 
2393.660656  	-0.000095 
2395.589472  	-0.000013 
2397.518288  	0.000054 
2399.447104  	0.000041 
2401.375920  	-0.000047 
2403.304736  	-0.000218 
2405.233552  	-0.000121 
2407.162368  	-0.000049 
2409.091184  	0.000020 
2411.020000  	0.000004 
2412.948816  	-0.000111 
2414.877632  	-0.000213 
2416.806448  	0.000055 
2418.735264  	0.000253 
2420.664080  	0.000284 
2422.592896  	0.000101 
2424.521712  	0.000141 
2426.450528  	0.000223 
2428.379344  	0.000348 
2430.308160  	0.000586 
2432.236976  	0.000604 
2434.165792  	0.000648 
2436.094608  	0.000991 
2438.023424  	0.001067 
2439.952240  	0.001119 
2441.881056  	0.001076 
2443.809872  	0.001032 
2445.738688  	0.001081 
2447.667504  	0.001205 
2449.596320  	0.001416 
2451.525136  	0.001590 
2453.453952  	0.001422 
2455.382768  	0.001486 
2457.311584  	0.001453 
2459.240400  	0.001412 
2461.169216  	0.001573 
2463.098032  	0.001659 
2465.026848  	0.001593 
2466.955664  	0.001568 
2468.884480  	0.001457 
2470.813296  	0.001391 
2472.742112  	0.001384 
2474.670928  	0.001557 
2476.599744  	0.001917 
2478.528560  	0.002228 
2480.457376  	0.002367 
2482.386192  	0.002607 
2484.315008  	0.002499 
2486.243824  	0.002503 
2488.172640  	0.002819 
2490.101456  	0.002944 
2492.030272  	0.002726 
2493.959088  	0.002825 
2495.887904  	0.002873 
2497.816720  	0.003173 
2499.745536  	0.003300 
2501.674352  	0.003271 
2503.603168  	0.003316 
2505.531984  	0.003394 
2507.460800  	0.003442 
2509.389616  	0.003450 
2511.318432  	0.003425 
2513.247248  	0.003555 
2515.176064  	0.003718 
2517.104880  	0.003711 
2519.033696  	0.003554 
2520.962512  	0.003790 
2522.891328  	0.003899 
2524.820144  	0.004024 
2526.748960  	0.004066 
2528.677776  	0.004172 
2530.606592  	0.004189 
2532.535408  	0.004475 
2534.464224  	0.004683 
2536.393040  	0.004458 
2538.321856  	0.004398 
2540.250672  	0.004661 
2542.179488  	0.004853 
2544.108304  	0.005074 
2546.037120  	0.005326 
2547.965936  	0.005422 
2549.894752  	0.005414 
2551.823568  	0.005753 
2553.752384  	0.005940 
2555.681200  	0.005905 
2557.610016  	0.005796 
2559.538832  	0.005853 
2561.467648  	0.005909 
2563.396464  	0.006055 
2565.325280  	0.006138 
2567.254096  	0.006253 
2569.182912  	0.006403 
2571.111728  	0.006731 
2573.040544  	0.006983 
2574.969360  	0.007153 
2576.898176  	0.007266 
2578.826992  	0.007239 
2580.755808  	0.007235 
2582.684624  	0.007508 
2584.613440  	0.007690 
2586.542256  	0.007828 
2588.471072  	0.007700 
2590.399888  	0.007713 
2592.328704  	0.007953 
2594.257520  	0.008106 
2596.186336  	0.008003 
2598.115152  	0.008165 
2600.043968  	0.008557 
2601.972784  	0.008652 
2603.901600  	0.008650 
2605.830416  	0.008574 
2607.759232  	0.008636 
2609.688048  	0.008969 
2611.616864  	0.009326 
2613.545680  	0.009400 
2615.474496  	0.009457 
2617.403312  	0.009724 
2619.332128  	0.009815 
2621.260944  	0.009802 
2623.189760  	0.009964 
2625.118576  	0.010276 
2627.047392  	0.010413 
2628.976208  	0.010583 
2630.905024  	0.010793 
2632.833840  	0.010961 
2634.762656  	0.011003 
2636.691472  	0.011213 
2638.620288  	0.011389 
2640.549104  	0.011601 
2642.477920  	0.011905 
2644.406736  	0.011945 
2646.335552  	0.011916 
2648.264368  	0.012256 
2650.193184  	0.012567 
2652.122000  	0.012724 
2654.050816  	0.012952 
2655.979632  	0.013121 
2657.908448  	0.013222 
2659.837264  	0.013385 
2661.766080  	0.013614 
2663.694896  	0.013775 
2665.623712  	0.013992 
2667.552528  	0.014243 
2669.481344  	0.014381 
2671.410160  	0.014484 
2673.338976  	0.014640 
2675.267792  	0.014893 
2677.196608  	0.015104 
2679.125424  	0.015375 
2681.054240  	0.015589 
2682.983056  	0.015786 
2684.911872  	0.015860 
2686.840688  	0.015922 
2688.769504  	0.016085 
2690.698320  	0.016373 
2692.627136  	0.016527 
2694.555952  	0.016544 
2696.484768  	0.016619 
2698.413584  	0.016775 
2700.342400  	0.016915 
2702.271216  	0.017136 
2704.200032  	0.017395 
2706.128848  	0.017627 
2708.057664  	0.017795 
2709.986480  	0.017932 
2711.915296  	0.018048 
2713.844112  	0.018268 
2715.772928  	0.018452 
2717.701744  	0.018589 
2719.630560  	0.018853 
2721.559376  	0.019078 
2723.488192  	0.019223 
2725.417008  	0.019481 
2727.345824  	0.019724 
2729.274640  	0.019948 
2731.203456  	0.020083 
2733.132272  	0.020171 
2735.061088  	0.020436 
2736.989904  	0.020711 
2738.918720  	0.020969 
2740.847536  	0.021117 
2742.776352  	0.021270 
2744.705168  	0.021465 
2746.633984  	0.021563 
2748.562800  	0.021633 
2750.491616  	0.021704 
2752.420432  	0.021764 
2754.349248  	0.021816 
2756.278064  	0.021918 
2758.206880  	0.021904 
2760.135696  	0.021816 
2762.064512  	0.021808 
2763.993328  	0.021872 
2765.922144  	0.021922 
2767.850960  	0.021922 
2769.779776  	0.021887 
2771.708592  	0.021963 
2773.637408  	0.021878 
2775.566224  	0.021742 
2777.495040  	0.021642 
2779.423856  	0.021688 
2781.352672  	0.021803 
2783.281488  	0.021855 
2785.210304  	0.021850 
2787.139120  	0.021909 
2789.067936  	0.021829 
2790.996752  	0.021902 
2792.925568  	0.022028 
2794.854384  	0.022046 
2796.783200  	0.021968 
2798.712016  	0.021950 
2800.640832  	0.022024 
2802.569648  	0.022080 
2804.498464  	0.022076 
2806.427280  	0.022107 
2808.356096  	0.022198 
2810.284912  	0.022166 
2812.213728  	0.022026 
2814.142544  	0.022038 
2816.071360  	0.021988 
2818.000176  	0.022029 
2819.928992  	0.022223 
2821.857808  	0.022172 
2823.786624  	0.022006 
2825.715440  	0.022100 
2827.644256  	0.022208 
2829.573072  	0.022183 
2831.501888  	0.022131 
2833.430704  	0.022109 
2835.359520  	0.022072 
2837.288336  	0.021993 
2839.217152  	0.021863 
2841.145968  	0.021787 
2843.074784  	0.021826 
2845.003600  	0.021901 
2846.932416  	0.021929 
2848.861232  	0.022085 
2850.790048  	0.022151 
2852.718864  	0.022160 
2854.647680  	0.022192 
2856.576496  	0.022289 
2858.505312  	0.022465 
2860.434128  	0.022612 
2862.362944  	0.022657 
2864.291760  	0.022764 
2866.220576  	0.022947 
2868.149392  	0.023078 
2870.078208  	0.023199 
2872.007024  	0.023491 
2873.935840  	0.023932 
2875.864656  	0.024351 
2877.793472  	0.024653 
2879.722288  	0.025184 
2881.651104  	0.025796 
2883.579920  	0.026361 
2885.508736  	0.026804 
2887.437552  	0.027188 
2889.366368  	0.027324 
2891.295184  	0.027384 
2893.224000  	0.027512 
2895.152816  	0.027639 
2897.081632  	0.027665 
2899.010448  	0.027370 
2900.939264  	0.027037 
2902.868080  	0.027268 
2904.796896  	0.027685 
2906.725712  	0.028045 
2908.654528  	0.028462 
2910.583344  	0.028885 
2912.512160  	0.029352 
2914.440976  	0.029957 
2916.369792  	0.030666 
2918.298608  	0.031216 
2920.227424  	0.031737 
2922.156240  	0.032361 
2924.085056  	0.033098 
2926.013872  	0.033826 
2927.942688  	0.034687 
2929.871504  	0.035680 
2931.800320  	0.036465 
2933.729136  	0.037269 
2935.657952  	0.038200 
2937.586768  	0.038898 
2939.515584  	0.039551 
2941.444400  	0.040089 
2943.373216  	0.040505 
2945.302032  	0.040974 
2947.230848  	0.041355 
2949.159664  	0.041429 
2951.088480  	0.041473 
2953.017296  	0.041585 
2954.946112  	0.041452 
2956.874928  	0.041198 
2958.803744  	0.041021 
2960.732560  	0.040914 
2962.661376  	0.040704 
2964.590192  	0.040406 
2966.519008  	0.040134 
2968.447824  	0.039727 
2970.376640  	0.039454 
2972.305456  	0.039288 
2974.234272  	0.039395 
2976.163088  	0.039359 
2978.091904  	0.039120 
2980.020720  	0.039049 
2981.949536  	0.039080 
2983.878352  	0.038941 
2985.807168  	0.038692 
2987.735984  	0.038701 
2989.664800  	0.038922 
2991.593616  	0.039393 
2993.522432  	0.039814 
2995.451248  	0.040214 
2997.380064  	0.040671 
2999.308880  	0.041264 
3001.237696  	0.041965 
3003.166512  	0.042682 
3005.095328  	0.043195 
3007.024144  	0.043684 
3008.952960  	0.044441 
3010.881776  	0.045338 
3012.810592  	0.046210 
3014.739408  	0.046843 
3016.668224  	0.047324 
3018.597040  	0.047925 
3020.525856  	0.048685 
3022.454672  	0.049241 
3024.383488  	0.049932 
3026.312304  	0.050779 
3028.241120  	0.051417 
3030.169936  	0.052319 
3032.098752  	0.053167 
3034.027568  	0.053650 
3035.956384  	0.054347 
3037.885200  	0.055053 
3039.814016  	0.055905 
3041.742832  	0.056682 
3043.671648  	0.057420 
3045.600464  	0.058185 
3047.529280  	0.058955 
3049.458096  	0.059798 
3051.386912  	0.060546 
3053.315728  	0.061261 
3055.244544  	0.062270 
3057.173360  	0.063362 
3059.102176  	0.064219 
3061.030992  	0.065121 
3062.959808  	0.066038 
3064.888624  	0.067152 
3066.817440  	0.068343 
3068.746256  	0.069485 
3070.675072  	0.070451 
3072.603888  	0.071399 
3074.532704  	0.072507 
3076.461520  	0.073698 
3078.390336  	0.074857 
3080.319152  	0.075974 
3082.247968  	0.076922 
3084.176784  	0.077894 
3086.105600  	0.078949 
3088.034416  	0.080067 
3089.963232  	0.080973 
3091.892048  	0.081876 
3093.820864  	0.083041 
3095.749680  	0.084491 
3097.678496  	0.085725 
3099.607312  	0.086888 
3101.536128  	0.088228 
3103.464944  	0.089220 
3105.393760  	0.089992 
3107.322576  	0.091184 
3109.251392  	0.092357 
3111.180208  	0.093144 
3113.109024  	0.093941 
3115.037840  	0.095070 
3116.966656  	0.096191 
3118.895472  	0.096999 
3120.824288  	0.097663 
3122.753104  	0.098607 
3124.681920  	0.099386 
3126.610736  	0.100104 
3128.539552  	0.100828 
3130.468368  	0.101487 
3132.397184  	0.102371 
3134.326000  	0.103145 
3136.254816  	0.103736 
3138.183632  	0.104682 
3140.112448  	0.105424 
3142.041264  	0.106183 
3143.970080  	0.107026 
3145.898896  	0.107758 
3147.827712  	0.108515 
3149.756528  	0.109528 
3151.685344  	0.110427 
3153.614160  	0.111161 
3155.542976  	0.111852 
3157.471792  	0.112540 
3159.400608  	0.113222 
3161.329424  	0.113955 
3163.258240  	0.114795 
3165.187056  	0.115642 
3167.115872  	0.116129 
3169.044688  	0.116790 
3170.973504  	0.117462 
3172.902320  	0.117921 
3174.831136  	0.118304 
3176.759952  	0.118892 
3178.688768  	0.119568 
3180.617584  	0.119653 
3182.546400  	0.119659 
3184.475216  	0.119902 
3186.404032  	0.120277 
3188.332848  	0.120511 
3190.261664  	0.120556 
3192.190480  	0.120681 
3194.119296  	0.120765 
3196.048112  	0.120615 
3197.976928  	0.120797 
3199.905744  	0.120923 
3201.834560  	0.120666 
3203.763376  	0.120402 
3205.692192  	0.120041 
3207.621008  	0.119850 
3209.549824  	0.119873 
3211.478640  	0.119900 
3213.407456  	0.119929 
3215.336272  	0.119848 
3217.265088  	0.119535 
3219.193904  	0.119475 
3221.122720  	0.119319 
3223.051536  	0.118963 
3224.980352  	0.118786 
3226.909168  	0.118621 
3228.837984  	0.118392 
3230.766800  	0.118245 
3232.695616  	0.118287 
3234.624432  	0.118107 
3236.553248  	0.118290 
3238.482064  	0.118459 
3240.410880  	0.118247 
3242.339696  	0.118188 
3244.268512  	0.118467 
3246.197328  	0.118644 
3248.126144  	0.118498 
3250.054960  	0.118815 
3251.983776  	0.119276 
3253.912592  	0.119730 
3255.841408  	0.119903 
3257.770224  	0.119831 
3259.699040  	0.120026 
3261.627856  	0.120366 
3263.556672  	0.120441 
3265.485488  	0.120643 
3267.414304  	0.120813 
3269.343120  	0.121093 
3271.271936  	0.121382 
3273.200752  	0.121720 
3275.129568  	0.122027 
3277.058384  	0.122192 
3278.987200  	0.122177 
3280.916016  	0.122164 
3282.844832  	0.122182 
3284.773648  	0.122365 
3286.702464  	0.122546 
3288.631280  	0.123094 
3290.560096  	0.123295 
3292.488912  	0.123328 
3294.417728  	0.123310 
3296.346544  	0.123619 
3298.275360  	0.123987 
3300.204176  	0.124142 
3302.132992  	0.124189 
3304.061808  	0.124551 
3305.990624  	0.124981 
3307.919440  	0.125604 
3309.848256  	0.126043 
3311.777072  	0.125947 
3313.705888  	0.126175 
3315.634704  	0.126546 
3317.563520  	0.126667 
3319.492336  	0.126958 
3321.421152  	0.127181 
3323.349968  	0.127167 
3325.278784  	0.127443 
3327.207600  	0.127767 
3329.136416  	0.127626 
3331.065232  	0.127343 
3332.994048  	0.127209 
3334.922864  	0.127551 
3336.851680  	0.127754 
3338.780496  	0.127377 
3340.709312  	0.126596 
3342.638128  	0.126423 
3344.566944  	0.126327 
3346.495760  	0.125839 
3348.424576  	0.125376 
3350.353392  	0.125332 
3352.282208  	0.125067 
3354.211024  	0.124586 
3356.139840  	0.124198 
3358.068656  	0.123695 
3359.997472  	0.123158 
3361.926288  	0.122779 
3363.855104  	0.122370 
3365.783920  	0.122086 
3367.712736  	0.121787 
3369.641552  	0.121216 
3371.570368  	0.120632 
3373.499184  	0.120450 
3375.428000  	0.120068 
3377.356816  	0.119517 
3379.285632  	0.119107 
3381.214448  	0.118497 
3383.143264  	0.117941 
3385.072080  	0.117726 
3387.000896  	0.117122 
3388.929712  	0.116375 
3390.858528  	0.115846 
3392.787344  	0.116031 
3394.716160  	0.115602 
3396.644976  	0.115077 
3398.573792  	0.114349 
3400.502608  	0.113245 
3402.431424  	0.112394 
3404.360240  	0.111851 
3406.289056  	0.111093 
3408.217872  	0.110331 
3410.146688  	0.109728 
3412.075504  	0.109137 
3414.004320  	0.108712 
3415.933136  	0.108270 
3417.861952  	0.107491 
3419.790768  	0.107352 
3421.719584  	0.106938 
3423.648400  	0.105632 
3425.577216  	0.104405 
3427.506032  	0.103700 
3429.434848  	0.103115 
3431.363664  	0.102738 
3433.292480  	0.102009 
3435.221296  	0.101035 
3437.150112  	0.100110 
3439.078928  	0.099285 
3441.007744  	0.098523 
3442.936560  	0.097988 
3444.865376  	0.097078 
3446.794192  	0.097127 
3448.723008  	0.096269 
3450.651824  	0.094386 
3452.580640  	0.093414 
3454.509456  	0.092680 
3456.438272  	0.091771 
3458.367088  	0.090915 
3460.295904  	0.090214 
3462.224720  	0.089509 
3464.153536  	0.088218 
3466.082352  	0.087217 
3468.011168  	0.086486 
3469.939984  	0.085341 
3471.868800  	0.084058 
3473.797616  	0.083016 
3475.726432  	0.081935 
3477.655248  	0.080562 
3479.584064  	0.079938 
3481.512880  	0.080050 
3483.441696  	0.078864 
3485.370512  	0.076824 
3487.299328  	0.075982 
3489.228144  	0.075116 
3491.156960  	0.073542 
3493.085776  	0.072528 
3495.014592  	0.071987 
3496.943408  	0.071219 
3498.872224  	0.069856 
3500.801040  	0.069492 
3502.729856  	0.069855 
3504.658672  	0.068796 
3506.587488  	0.066586 
3508.516304  	0.066021 
3510.445120  	0.065810 
3512.373936  	0.064124 
3514.302752  	0.062585 
3516.231568  	0.061656 
3518.160384  	0.060955 
3520.089200  	0.059972 
3522.018016  	0.059742 
3523.946832  	0.060495 
3525.875648  	0.059521 
3527.804464  	0.058434 
3529.733280  	0.057003 
3531.662096  	0.055053 
3533.590912  	0.053371 
3535.519728  	0.053311 
3537.448544  	0.052783 
3539.377360  	0.050913 
3541.306176  	0.049676 
3543.234992  	0.049902 
3545.163808  	0.051195 
3547.092624  	0.050791 
3549.021440  	0.047910 
3550.950256  	0.046471 
3552.879072  	0.046835 
3554.807888  	0.045101 
3556.736704  	0.043083 
3558.665520  	0.042610 
3560.594336  	0.042699 
3562.523152  	0.041834 
3564.451968  	0.041908 
3566.380784  	0.045409 
3568.309600  	0.045411 
3570.238416  	0.039970 
3572.167232  	0.036608 
3574.096048  	0.035577 
3576.024864  	0.035092 
3577.953680  	0.034200 
3579.882496  	0.033249 
3581.811312  	0.031984 
3583.740128  	0.031126 
3585.668944  	0.032054 
3587.597760  	0.034897 
3589.526576  	0.031916 
3591.455392  	0.027973 
3593.384208  	0.027890 
3595.313024  	0.028347 
3597.241840  	0.026725 
3599.170656  	0.025005 
3601.099472  	0.024199 
3603.028288  	0.022100 
3604.957104  	0.020515 
3606.885920  	0.021666 
3608.814736  	0.022466 
3610.743552  	0.019975 
3612.672368  	0.019840 
3614.601184  	0.019585 
3616.530000  	0.017324 
3618.458816  	0.017723 
3620.387632  	0.017191 
3622.316448  	0.013439 
3624.245264  	0.011053 
3626.174080  	0.010523 
3628.102896  	0.012967 
3630.031712  	0.014388 
3631.960528  	0.009216 
3633.889344  	0.007167 
3635.818160  	0.005506 
3637.746976  	0.003889 
3639.675792  	0.002796 
3641.604608  	0.002054 
3643.533424  	0.001342 
3645.462240  	0.001178 
3647.391056  	0.004711 
3649.319872  	0.007416 
3651.248688  	0.004555 
3653.177504  	-0.001535 
3655.106320  	-0.003532 
3657.035136  	-0.002866 
3658.963952  	-0.004871 
3660.892768  	-0.006408 
3662.821584  	-0.007353 
3664.750400  	-0.008197 
3666.679216  	-0.008454 
3668.608032  	-0.006614 
3670.536848  	-0.004038 
3672.465664  	-0.007086 
3674.394480  	-0.006832 
3676.323296  	-0.003215 
3678.252112  	-0.006561 
3680.180928  	-0.008695 
3682.109744  	-0.010743 
3684.038560  	-0.011538 
3685.967376  	-0.011822 
3687.896192  	-0.009766 
3689.825008  	-0.006684 
3691.753824  	-0.007880 
3693.682640  	-0.010454 
3695.611456  	-0.011645 
3697.540272  	-0.011885 
3699.469088  	-0.012415 
3701.397904  	-0.011214 
3703.326720  	-0.011009 
3705.255536  	-0.012094 
3707.184352  	-0.012125 
3709.113168  	-0.010432 
3711.041984  	-0.007545 
3712.970800  	-0.007747 
3714.899616  	-0.010829 
3716.828432  	-0.012583 
3718.757248  	-0.011862 
3720.686064  	-0.010982 
3722.614880  	-0.009756 
3724.543696  	-0.009280 
3726.472512  	-0.008770 
3728.401328  	-0.010629 
3730.330144  	-0.012522 
3732.258960  	-0.011053 
3734.187776  	-0.006897 
3736.116592  	-0.003542 
3738.045408  	-0.007330 
3739.974224  	-0.009664 
3741.903040  	-0.010640 
3743.831856  	-0.009408 
3745.760672  	-0.007456 
3747.689488  	-0.009745 
3749.618304  	-0.007898 
3751.547120  	-0.005501 
3753.475936  	-0.008198 
3755.404752  	-0.011192 
3757.333568  	-0.011155 
3759.262384  	-0.010091 
3761.191200  	-0.011092 
3763.120016  	-0.013148 
3765.048832  	-0.012175 
3766.977648  	-0.012013 
3768.906464  	-0.011950 
3770.835280  	-0.011244 
3772.764096  	-0.012994 
3774.692912  	-0.014007 
3776.621728  	-0.014089 
3778.550544  	-0.012798 
3780.479360  	-0.011936 
3782.408176  	-0.013251 
3784.336992  	-0.012813 
3786.265808  	-0.012720 
3788.194624  	-0.013632 
3790.123440  	-0.013912 
3792.052256  	-0.014110 
3793.981072  	-0.014355 
3795.909888  	-0.012379 
3797.838704  	-0.011060 
3799.767520  	-0.011792 
3801.696336  	-0.008976 
3803.625152  	-0.010737 
3805.553968  	-0.012835 
3807.482784  	-0.011338 
3809.411600  	-0.012647 
3811.340416  	-0.013902 
3813.269232  	-0.014331 
3815.198048  	-0.012355 
3817.126864  	-0.010564 
3819.055680  	-0.011787 
3820.984496  	-0.008932 
3822.913312  	-0.009766 
3824.842128  	-0.012438 
3826.770944  	-0.011985 
3828.699760  	-0.012715 
3830.628576  	-0.013100 
3832.557392  	-0.012510 
3834.486208  	-0.012643 
3836.415024  	-0.011574 
3838.343840  	-0.009242 
3840.272656  	-0.008501 
3842.201472  	-0.010147 
3844.130288  	-0.010875 
3846.059104  	-0.012705 
3847.987920  	-0.013864 
3849.916736  	-0.013385 
3851.845552  	-0.010968 
3853.774368  	-0.005140 
3855.703184  	-0.007620 
3857.632000  	-0.010655 
3859.560816  	-0.012631 
3861.489632  	-0.012240 
3863.418448  	-0.010559 
3865.347264  	-0.009492 
3867.276080  	-0.011765 
3869.204896  	-0.010069 
3871.133712  	-0.008179 
3873.062528  	-0.010543 
3874.991344  	-0.011098 
3876.920160  	-0.013677 
3878.848976  	-0.013250 
3880.777792  	-0.009915 
3882.706608  	-0.010663 
3884.635424  	-0.011184 
3886.564240  	-0.010800 
3888.493056  	-0.013635 
3890.421872  	-0.013009 
3892.350688  	-0.010971 
3894.279504  	-0.012409 
3896.208320  	-0.013862 
3898.137136  	-0.012557 
3900.065952  	-0.009795 
3901.994768  	-0.009158 
3903.923584  	-0.008520 
3905.852400  	-0.009783 
3907.781216  	-0.012960 
3909.710032  	-0.014606 
3911.638848  	-0.014928 
3913.567664  	-0.014728 
3915.496480  	-0.013150 
3917.425296  	-0.011268 
3919.354112  	-0.011715 
3921.282928  	-0.012433 
3923.211744  	-0.012119 
3925.140560  	-0.011187 
3927.069376  	-0.012808 
3928.998192  	-0.013030 
3930.927008  	-0.011540 
3932.855824  	-0.011034 
3934.784640  	-0.012894 
3936.713456  	-0.014135 
3938.642272  	-0.014202 
3940.571088  	-0.013872 
3942.499904  	-0.012122 
3944.428720  	-0.012208 
3946.357536  	-0.013051 
3948.286352  	-0.012010 
3950.215168  	-0.012471 
3952.143984  	-0.013912 
3954.072800  	-0.014475 
3956.001616  	-0.014158 
3957.930432  	-0.013926 
3959.859248  	-0.013653 
3961.788064  	-0.013264 
3963.716880  	-0.013737 
3965.645696  	-0.014458 
3967.574512  	-0.014488 
3969.503328  	-0.014314 
3971.432144  	-0.014095 
3973.360960  	-0.013639 
3975.289776  	-0.013129 
3977.218592  	-0.013581 
3979.147408  	-0.014304 
3981.076224  	-0.014364 
3983.005040  	-0.014251 
3984.933856  	-0.014240 
3986.862672  	-0.014205 
3988.791488  	-0.014194 
3990.720304  	-0.013836 
3992.649120  	-0.013914 
3994.577936  	-0.013983 
3996.506752  	-0.014291 
3998.435568  	-0.014500 
4000.364384  	-0.014360 