##TITLE=No Description
##DATA TYPE=INFRARED SPECTRUM
##XUNITS=1/CM
##YUNITS=Abs
399.264912  	0.604497 
401.193728  	0.601300 
403.122544  	0.589048 
405.051360  	0.586656 
406.980176  	0.593866 
408.908992  	0.595658 
410.837808  	0.601662 
412.766624  	0.593471 
414.695440  	0.575519 
416.624256  	0.578951 
418.553072  	0.611895 
420.481888  	0.575479 
422.410704  	0.568843 
424.339520  	0.564827 
426.268336  	0.561150 
428.197152  	0.563415 
430.125968  	0.555432 
432.054784  	0.547526 
433.983600  	0.550241 
435.912416  	0.547454 
437.841232  	0.545430 
439.770048  	0.543544 
441.698864  	0.545879 
443.627680  	0.547453 
445.556496  	0.547284 
447.485312  	0.540814 
449.414128  	0.537884 
451.342944  	0.536727 
453.271760  	0.541420 
455.200576  	0.535890 
457.129392  	0.536339 
459.058208  	0.535129 
460.987024  	0.535364 
462.915840  	0.527827 
464.844656  	0.527456 
466.773472  	0.532012 
468.702288  	0.537602 
470.631104  	0.531952 
472.559920  	0.528983 
474.488736  	0.526618 
476.417552  	0.529500 
478.346368  	0.524711 
480.275184  	0.520306 
482.204000  	0.518485 
484.132816  	0.524996 
486.061632  	0.525111 
487.990448  	0.521336 
489.919264  	0.520139 
491.848080  	0.521330 
493.776896  	0.517636 
495.705712  	0.515403 
497.634528  	0.510573 
499.563344  	0.510268 
501.492160  	0.508975 
503.420976  	0.508134 
505.349792  	0.506122 
507.278608  	0.508525 
509.207424  	0.506924 
511.136240  	0.509650 
513.065056  	0.510431 
514.993872  	0.513289 
516.922688  	0.514862 
518.851504  	0.515433 
520.780320  	0.513010 
522.709136  	0.513312 
524.637952  	0.512073 
526.566768  	0.509918 
528.495584  	0.507121 
530.424400  	0.504890 
532.353216  	0.499165 
534.282032  	0.495591 
536.210848  	0.490676 
538.139664  	0.485463 
540.068480  	0.481108 
541.997296  	0.478141 
543.926112  	0.473578 
545.854928  	0.470456 
547.783744  	0.466083 
549.712560  	0.464319 
551.641376  	0.461071 
553.570192  	0.458615 
555.499008  	0.456028 
557.427824  	0.453842 
559.356640  	0.449321 
561.285456  	0.446481 
563.214272  	0.442350 
565.143088  	0.438344 
567.071904  	0.435441 
569.000720  	0.433342 
570.929536  	0.429657 
572.858352  	0.426379 
574.787168  	0.422952 
576.715984  	0.421523 
578.644800  	0.417894 
580.573616  	0.413803 
582.502432  	0.409641 
584.431248  	0.406025 
586.360064  	0.401357 
588.288880  	0.398993 
590.217696  	0.397579 
592.146512  	0.395734 
594.075328  	0.392452 
596.004144  	0.390326 
597.932960  	0.388840 
599.861776  	0.387913 
601.790592  	0.385926 
603.719408  	0.384388 
605.648224  	0.383313 
607.577040  	0.382269 
609.505856  	0.379946 
611.434672  	0.378376 
613.363488  	0.376820 
615.292304  	0.375963 
617.221120  	0.374035 
619.149936  	0.372951 
621.078752  	0.370830 
623.007568  	0.369148 
624.936384  	0.367587 
626.865200  	0.366563 
628.794016  	0.365381 
630.722832  	0.365530 
632.651648  	0.365611 
634.580464  	0.364878 
636.509280  	0.364263 
638.438096  	0.364116 
640.366912  	0.363220 
642.295728  	0.361842 
644.224544  	0.359123 
646.153360  	0.355525 
648.082176  	0.351907 
650.010992  	0.348848 
651.939808  	0.344993 
653.868624  	0.341543 
655.797440  	0.337899 
657.726256  	0.334591 
659.655072  	0.330650 
661.583888  	0.326880 
663.512704  	0.322564 
665.441520  	0.318576 
667.370336  	0.314517 
669.299152  	0.310914 
671.227968  	0.306361 
673.156784  	0.302209 
675.085600  	0.299425 
677.014416  	0.297209 
678.943232  	0.294488 
680.872048  	0.292783 
682.800864  	0.291571 
684.729680  	0.289978 
686.658496  	0.287794 
688.587312  	0.286225 
690.516128  	0.284528 
692.444944  	0.283753 
694.373760  	0.282367 
696.302576  	0.280474 
698.231392  	0.278851 
700.160208  	0.276631 
702.089024  	0.273619 
704.017840  	0.271436 
705.946656  	0.268913 
707.875472  	0.266500 
709.804288  	0.263885 
711.733104  	0.261727 
713.661920  	0.260617 
715.590736  	0.259377 
717.519552  	0.258481 
719.448368  	0.258683 
721.377184  	0.258969 
723.306000  	0.259188 
725.234816  	0.259354 
727.163632  	0.258687 
729.092448  	0.256018 
731.021264  	0.252237 
732.950080  	0.248353 
734.878896  	0.245240 
736.807712  	0.242274 
738.736528  	0.239710 
740.665344  	0.237947 
742.594160  	0.236602 
744.522976  	0.234763 
746.451792  	0.233086 
748.380608  	0.231255 
750.309424  	0.229709 
752.238240  	0.228506 
754.167056  	0.227829 
756.095872  	0.227178 
758.024688  	0.226096 
759.953504  	0.225326 
761.882320  	0.226101 
763.811136  	0.226580 
765.739952  	0.224854 
767.668768  	0.221475 
769.597584  	0.218571 
771.526400  	0.217143 
773.455216  	0.218493 
775.384032  	0.222001 
777.312848  	0.226718 
779.241664  	0.229936 
781.170480  	0.229182 
783.099296  	0.224436 
785.028112  	0.218569 
786.956928  	0.212799 
788.885744  	0.207884 
790.814560  	0.204088 
792.743376  	0.201986 
794.672192  	0.201009 
796.601008  	0.199745 
798.529824  	0.196738 
800.458640  	0.192747 
802.387456  	0.189162 
804.316272  	0.186886 
806.245088  	0.185642 
808.173904  	0.184749 
810.102720  	0.184122 
812.031536  	0.183728 
813.960352  	0.183662 
815.889168  	0.184019 
817.817984  	0.184475 
819.746800  	0.185162 
821.675616  	0.185631 
823.604432  	0.186020 
825.533248  	0.186136 
827.462064  	0.186248 
829.390880  	0.185959 
831.319696  	0.185556 
833.248512  	0.184267 
835.177328  	0.182081 
837.106144  	0.179230 
839.034960  	0.176135 
840.963776  	0.172060 
842.892592  	0.168040 
844.821408  	0.164110 
846.750224  	0.160546 
848.679040  	0.157614 
850.607856  	0.155386 
852.536672  	0.153712 
854.465488  	0.152188 
856.394304  	0.151167 
858.323120  	0.149775 
860.251936  	0.148111 
862.180752  	0.146682 
864.109568  	0.144668 
866.038384  	0.142401 
867.967200  	0.140015 
869.896016  	0.138202 
871.824832  	0.137096 
873.753648  	0.137227 
875.682464  	0.137983 
877.611280  	0.139413 
879.540096  	0.141303 
881.468912  	0.143557 
883.397728  	0.145859 
885.326544  	0.147600 
887.255360  	0.148517 
889.184176  	0.148661 
891.112992  	0.148049 
893.041808  	0.146287 
894.970624  	0.143575 
896.899440  	0.139649 
898.828256  	0.134790 
900.757072  	0.130130 
902.685888  	0.126134 
904.614704  	0.123358 
906.543520  	0.122709 
908.472336  	0.124012 
910.401152  	0.126051 
912.329968  	0.128613 
914.258784  	0.131243 
916.187600  	0.133804 
918.116416  	0.135871 
920.045232  	0.137238 
921.974048  	0.138282 
923.902864  	0.139265 
925.831680  	0.140002 
927.760496  	0.140718 
929.689312  	0.141512 
931.618128  	0.142587 
933.546944  	0.143439 
935.475760  	0.143682 
937.404576  	0.143197 
939.333392  	0.142289 
941.262208  	0.141824 
943.191024  	0.142564 
945.119840  	0.145072 
947.048656  	0.149855 
948.977472  	0.157241 
950.906288  	0.166887 
952.835104  	0.178659 
954.763920  	0.192103 
956.692736  	0.205775 
958.621552  	0.218352 
960.550368  	0.227983 
962.479184  	0.234152 
964.408000  	0.235278 
966.336816  	0.231454 
968.265632  	0.223027 
970.194448  	0.211458 
972.123264  	0.197213 
974.052080  	0.181891 
975.980896  	0.166811 
977.909712  	0.152632 
979.838528  	0.139964 
981.767344  	0.129478 
983.696160  	0.121525 
985.624976  	0.116200 
987.553792  	0.114155 
989.482608  	0.115126 
991.411424  	0.118798 
993.340240  	0.124541 
995.269056  	0.131348 
997.197872  	0.138780 
999.126688  	0.146127 
1001.055504  	0.153891 
1002.984320  	0.161546 
1004.913136  	0.168998 
1006.841952  	0.176223 
1008.770768  	0.183018 
1010.699584  	0.188631 
1012.628400  	0.192961 
1014.557216  	0.195922 
1016.486032  	0.197458 
1018.414848  	0.197997 
1020.343664  	0.197870 
1022.272480  	0.197563 
1024.201296  	0.197255 
1026.130112  	0.196738 
1028.058928  	0.197134 
1029.987744  	0.199024 
1031.916560  	0.201773 
1033.845376  	0.205136 
1035.774192  	0.210056 
1037.703008  	0.216739 
1039.631824  	0.226407 
1041.560640  	0.239217 
1043.489456  	0.255753 
1045.418272  	0.274585 
1047.347088  	0.293478 
1049.275904  	0.308400 
1051.204720  	0.317659 
1053.133536  	0.321115 
1055.062352  	0.320305 
1056.991168  	0.316885 
1058.919984  	0.313869 
1060.848800  	0.311611 
1062.777616  	0.309611 
1064.706432  	0.306701 
1066.635248  	0.303631 
1068.564064  	0.298962 
1070.492880  	0.292610 
1072.421696  	0.285760 
1074.350512  	0.281481 
1076.279328  	0.280939 
1078.208144  	0.285083 
1080.136960  	0.290947 
1082.065776  	0.296070 
1083.994592  	0.297334 
1085.923408  	0.293966 
1087.852224  	0.285913 
1089.781040  	0.275679 
1091.709856  	0.263254 
1093.638672  	0.249227 
1095.567488  	0.233742 
1097.496304  	0.218322 
1099.425120  	0.203320 
1101.353936  	0.188891 
1103.282752  	0.175025 
1105.211568  	0.162342 
1107.140384  	0.150973 
1109.069200  	0.140628 
1110.998016  	0.131252 
1112.926832  	0.122748 
1114.855648  	0.114984 
1116.784464  	0.107477 
1118.713280  	0.100392 
1120.642096  	0.093702 
1122.570912  	0.087381 
1124.499728  	0.081727 
1126.428544  	0.076658 
1128.357360  	0.072080 
1130.286176  	0.068279 
1132.214992  	0.065262 
1134.143808  	0.063094 
1136.072624  	0.061224 
1138.001440  	0.059292 
1139.930256  	0.057605 
1141.859072  	0.055864 
1143.787888  	0.053960 
1145.716704  	0.052404 
1147.645520  	0.050884 
1149.574336  	0.050062 
1151.503152  	0.049504 
1153.431968  	0.049251 
1155.360784  	0.049334 
1157.289600  	0.050200 
1159.218416  	0.051519 
1161.147232  	0.053225 
1163.076048  	0.055246 
1165.004864  	0.057325 
1166.933680  	0.059122 
1168.862496  	0.061090 
1170.791312  	0.063414 
1172.720128  	0.066122 
1174.648944  	0.069029 
1176.577760  	0.071942 
1178.506576  	0.075114 
1180.435392  	0.078442 
1182.364208  	0.081728 
1184.293024  	0.085509 
1186.221840  	0.089974 
1188.150656  	0.094860 
1190.079472  	0.100429 
1192.008288  	0.107174 
1193.937104  	0.114774 
1195.865920  	0.123140 
1197.794736  	0.132387 
1199.723552  	0.142647 
1201.652368  	0.152945 
1203.581184  	0.162560 
1205.510000  	0.171747 
1207.438816  	0.180070 
1209.367632  	0.187532 
1211.296448  	0.193690 
1213.225264  	0.198546 
1215.154080  	0.201599 
1217.082896  	0.203581 
1219.011712  	0.204028 
1220.940528  	0.203624 
1222.869344  	0.202327 
1224.798160  	0.200369 
1226.726976  	0.197383 
1228.655792  	0.193842 
1230.584608  	0.189621 
1232.513424  	0.184697 
1234.442240  	0.179108 
1236.371056  	0.173065 
1238.299872  	0.166557 
1240.228688  	0.159285 
1242.157504  	0.151929 
1244.086320  	0.144871 
1246.015136  	0.137521 
1247.943952  	0.130342 
1249.872768  	0.123171 
1251.801584  	0.116404 
1253.730400  	0.109956 
1255.659216  	0.103672 
1257.588032  	0.097693 
1259.516848  	0.092336 
1261.445664  	0.087223 
1263.374480  	0.082419 
1265.303296  	0.078332 
1267.232112  	0.075171 
1269.160928  	0.072976 
1271.089744  	0.071510 
1273.018560  	0.070769 
1274.947376  	0.070876 
1276.876192  	0.071737 
1278.805008  	0.072368 
1280.733824  	0.072152 
1282.662640  	0.070601 
1284.591456  	0.068536 
1286.520272  	0.066784 
1288.449088  	0.065766 
1290.377904  	0.065444 
1292.306720  	0.066068 
1294.235536  	0.066775 
1296.164352  	0.066659 
1298.093168  	0.064736 
1300.021984  	0.061995 
1301.950800  	0.059072 
1303.879616  	0.055900 
1305.808432  	0.052591 
1307.737248  	0.049310 
1309.666064  	0.046005 
1311.594880  	0.043870 
1313.523696  	0.042365 
1315.452512  	0.041085 
1317.381328  	0.040830 
1319.310144  	0.041106 
1321.238960  	0.041099 
1323.167776  	0.041529 
1325.096592  	0.042164 
1327.025408  	0.042519 
1328.954224  	0.042414 
1330.883040  	0.041739 
1332.811856  	0.040431 
1334.740672  	0.039440 
1336.669488  	0.039738 
1338.598304  	0.041278 
1340.527120  	0.040695 
1342.455936  	0.037933 
1344.384752  	0.037088 
1346.313568  	0.037481 
1348.242384  	0.038295 
1350.171200  	0.039433 
1352.100016  	0.040883 
1354.028832  	0.043009 
1355.957648  	0.045168 
1357.886464  	0.047065 
1359.815280  	0.049517 
1361.744096  	0.053386 
1363.672912  	0.055858 
1365.601728  	0.055940 
1367.530544  	0.057651 
1369.459360  	0.059539 
1371.388176  	0.060235 
1373.316992  	0.061333 
1375.245808  	0.060268 
1377.174624  	0.056870 
1379.103440  	0.053982 
1381.032256  	0.050938 
1382.961072  	0.048513 
1384.889888  	0.047348 
1386.818704  	0.047613 
1388.747520  	0.045449 
1390.676336  	0.042340 
1392.605152  	0.040788 
1394.533968  	0.041506 
1396.462784  	0.042061 
1398.391600  	0.041723 
1400.320416  	0.040867 
1402.249232  	0.039997 
1404.178048  	0.041444 
1406.106864  	0.042409 
1408.035680  	0.042909 
1409.964496  	0.044670 
1411.893312  	0.046899 
1413.822128  	0.048942 
1415.750944  	0.052190 
1417.679760  	0.055755 
1419.608576  	0.057340 
1421.537392  	0.055472 
1423.466208  	0.054946 
1425.395024  	0.052995 
1427.323840  	0.050210 
1429.252656  	0.048701 
1431.181472  	0.046921 
1433.110288  	0.045618 
1435.039104  	0.046295 
1436.967920  	0.048705 
1438.896736  	0.048246 
1440.825552  	0.048077 
1442.754368  	0.048691 
1444.683184  	0.048859 
1446.612000  	0.049729 
1448.540816  	0.050577 
1450.469632  	0.050309 
1452.398448  	0.050741 
1454.327264  	0.051693 
1456.256080  	0.054881 
1458.184896  	0.056362 
1460.113712  	0.052153 
1462.042528  	0.049745 
1463.971344  	0.049926 
1465.900160  	0.050816 
1467.828976  	0.050448 
1469.757792  	0.051609 
1471.686608  	0.056812 
1473.615424  	0.065367 
1475.544240  	0.068776 
1477.473056  	0.072111 
1479.401872  	0.074371 
1481.330688  	0.078174 
1483.259504  	0.080376 
1485.188320  	0.082150 
1487.117136  	0.084685 
1489.045952  	0.087607 
1490.974768  	0.085183 
1492.903584  	0.079792 
1494.832400  	0.075879 
1496.761216  	0.072479 
1498.690032  	0.066607 
1500.618848  	0.060527 
1502.547664  	0.055100 
1504.476480  	0.051944 
1506.405296  	0.054981 
1508.334112  	0.055339 
1510.262928  	0.048892 
1512.191744  	0.044759 
1514.120560  	0.043394 
1516.049376  	0.045713 
1517.978192  	0.047137 
1519.907008  	0.047712 
1521.835824  	0.053400 
1523.764640  	0.055082 
1525.693456  	0.057640 
1527.622272  	0.059338 
1529.551088  	0.057975 
1531.479904  	0.056828 
1533.408720  	0.056429 
1535.337536  	0.052145 
1537.266352  	0.048674 
1539.195168  	0.048637 
1541.123984  	0.048498 
1543.052800  	0.046216 
1544.981616  	0.043624 
1546.910432  	0.039318 
1548.839248  	0.038737 
1550.768064  	0.039854 
1552.696880  	0.038697 
1554.625696  	0.040369 
1556.554512  	0.040911 
1558.483328  	0.046608 
1560.412144  	0.050077 
1562.340960  	0.047829 
1564.269776  	0.049438 
1566.198592  	0.053436 
1568.127408  	0.056617 
1570.056224  	0.064322 
1571.985040  	0.067655 
1573.913856  	0.069870 
1575.842672  	0.074641 
1577.771488  	0.078330 
1579.700304  	0.076111 
1581.629120  	0.074985 
1583.557936  	0.074354 
1585.486752  	0.075205 
1587.415568  	0.077227 
1589.344384  	0.081613 
1591.273200  	0.087012 
1593.202016  	0.093844 
1595.130832  	0.101303 
1597.059648  	0.108692 
1598.988464  	0.114757 
1600.917280  	0.121199 
1602.846096  	0.126000 
1604.774912  	0.129126 
1606.703728  	0.130250 
1608.632544  	0.130948 
1610.561360  	0.129078 
1612.490176  	0.127147 
1614.418992  	0.125045 
1616.347808  	0.126785 
1618.276624  	0.129052 
1620.205440  	0.129983 
1622.134256  	0.132957 
1624.063072  	0.140908 
1625.991888  	0.145550 
1627.920704  	0.153335 
1629.849520  	0.161432 
1631.778336  	0.167894 
1633.707152  	0.173483 
1635.635968  	0.186561 
1637.564784  	0.197084 
1639.493600  	0.199163 
1641.422416  	0.201983 
1643.351232  	0.204536 
1645.280048  	0.206202 
1647.208864  	0.212963 
1649.137680  	0.211583 
1651.066496  	0.207302 
1652.995312  	0.209213 
1654.924128  	0.211837 
1656.852944  	0.205046 
1658.781760  	0.200810 
1660.710576  	0.197621 
1662.639392  	0.195405 
1664.568208  	0.190651 
1666.497024  	0.185597 
1668.425840  	0.181874 
1670.354656  	0.177807 
1672.283472  	0.171734 
1674.212288  	0.166951 
1676.141104  	0.163596 
1678.069920  	0.159956 
1679.998736  	0.158651 
1681.927552  	0.156824 
1683.856368  	0.157258 
1685.785184  	0.156967 
1687.714000  	0.153553 
1689.642816  	0.152458 
1691.571632  	0.150021 
1693.500448  	0.147751 
1695.429264  	0.148157 
1697.358080  	0.149445 
1699.286896  	0.146547 
1701.215712  	0.146223 
1703.144528  	0.142207 
1705.073344  	0.139431 
1707.002160  	0.135028 
1708.930976  	0.129498 
1710.859792  	0.123673 
1712.788608  	0.117795 
1714.717424  	0.111862 
1716.646240  	0.104045 
1718.575056  	0.090709 
1720.503872  	0.078605 
1722.432688  	0.069535 
1724.361504  	0.059457 
1726.290320  	0.050557 
1728.219136  	0.044206 
1730.147952  	0.039476 
1732.076768  	0.035018 
1734.005584  	0.031764 
1735.934400  	0.025407 
1737.863216  	0.022142 
1739.792032  	0.019486 
1741.720848  	0.017473 
1743.649664  	0.016742 
1745.578480  	0.015231 
1747.507296  	0.014446 
1749.436112  	0.014591 
1751.364928  	0.012703 
1753.293744  	0.009538 
1755.222560  	0.008008 
1757.151376  	0.008698 
1759.080192  	0.007621 
1761.009008  	0.007538 
1762.937824  	0.006757 
1764.866640  	0.005242 
1766.795456  	0.005309 
1768.724272  	0.006162 
1770.653088  	0.005630 
1772.581904  	0.006576 
1774.510720  	0.005578 
1776.439536  	0.004355 
1778.368352  	0.003303 
1780.297168  	0.003846 
1782.225984  	0.003040 
1784.154800  	0.002808 
1786.083616  	0.002278 
1788.012432  	0.001728 
1789.941248  	0.002550 
1791.870064  	0.004134 
1793.798880  	0.003144 
1795.727696  	0.002443 
1797.656512  	0.001524 
1799.585328  	0.001613 
1801.514144  	0.002260 
1803.442960  	0.001313 
1805.371776  	0.000317 
1807.300592  	0.000384 
1809.229408  	0.000352 
1811.158224  	0.000499 
1813.087040  	-0.000381 
1815.015856  	-0.001072 
1816.944672  	-0.000643 
1818.873488  	-0.000402 
1820.802304  	-0.000601 
1822.731120  	-0.000040 
1824.659936  	0.000558 
1826.588752  	0.000228 
1828.517568  	-0.000143 
1830.446384  	0.000690 
1832.375200  	-0.000546 
1834.304016  	-0.000954 
1836.232832  	-0.000762 
1838.161648  	-0.000574 
1840.090464  	-0.001168 
1842.019280  	-0.000914 
1843.948096  	0.000181 
1845.876912  	0.000607 
1847.805728  	-0.000372 
1849.734544  	-0.001240 
1851.663360  	-0.001801 
1853.592176  	-0.001474 
1855.520992  	-0.001532 
1857.449808  	-0.001476 
1859.378624  	-0.001876 
1861.307440  	-0.001751 
1863.236256  	-0.002088 
1865.165072  	-0.001885 
1867.093888  	-0.000943 
1869.022704  	0.000729 
1870.951520  	-0.000425 
1872.880336  	-0.001658 
1874.809152  	-0.002321 
1876.737968  	-0.002369 
1878.666784  	-0.002543 
1880.595600  	-0.002714 
1882.524416  	-0.002613 
1884.453232  	-0.002129 
1886.382048  	-0.002540 
1888.310864  	-0.001791 
1890.239680  	-0.001269 
1892.168496  	-0.001647 
1894.097312  	-0.001756 
1896.026128  	-0.001906 
1897.954944  	-0.002575 
1899.883760  	-0.002554 
1901.812576  	-0.002523 
1903.741392  	-0.002158 
1905.670208  	-0.002498 
1907.599024  	-0.002543 
1909.527840  	-0.002387 
1911.456656  	-0.001873 
1913.385472  	-0.001981 
1915.314288  	-0.001604 
1917.243104  	-0.001508 
1919.171920  	-0.001530 
1921.100736  	-0.001828 
1923.029552  	-0.001477 
1924.958368  	-0.003218 
1926.887184  	-0.003714 
1928.816000  	-0.004075 
1930.744816  	-0.003680 
1932.673632  	-0.003151 
1934.602448  	-0.002735 
1936.531264  	-0.003242 
1938.460080  	-0.003119 
1940.388896  	-0.002835 
1942.317712  	-0.001439 
1944.246528  	-0.002410 
1946.175344  	-0.002921 
1948.104160  	-0.003475 
1950.032976  	-0.002664 
1951.961792  	-0.002734 
1953.890608  	-0.003359 
1955.819424  	-0.004490 
1957.748240  	-0.004445 
1959.677056  	-0.003805 
1961.605872  	-0.003430 
1963.534688  	-0.004563 
1965.463504  	-0.003179 
1967.392320  	-0.002900 
1969.321136  	-0.003066 
1971.249952  	-0.003952 
1973.178768  	-0.003797 
1975.107584  	-0.003808 
1977.036400  	-0.002554 
1978.965216  	-0.002313 
1980.894032  	-0.002830 
1982.822848  	-0.002835 
1984.751664  	-0.001523 
1986.680480  	-0.001828 
1988.609296  	-0.001122 
1990.538112  	-0.000842 
1992.466928  	-0.000985 
1994.395744  	-0.002458 
1996.324560  	-0.002263 
1998.253376  	-0.002571 
2000.182192  	-0.003500 
2002.111008  	-0.003711 
2004.039824  	-0.003217 
2005.968640  	-0.003911 
2007.897456  	-0.003359 
2009.826272  	-0.003080 
2011.755088  	-0.001817 
2013.683904  	-0.001675 
2015.612720  	-0.000902 
2017.541536  	-0.000668 
2019.470352  	-0.000379 
2021.399168  	-0.002121 
2023.327984  	-0.002420 
2025.256800  	-0.001749 
2027.185616  	-0.000345 
2029.114432  	-0.000993 
2031.043248  	-0.001779 
2032.972064  	-0.002238 
2034.900880  	-0.000661 
2036.829696  	-0.000953 
2038.758512  	-0.000522 
2040.687328  	-0.000927 
2042.616144  	-0.000895 
2044.544960  	-0.001665 
2046.473776  	-0.000980 
2048.402592  	0.000201 
2050.331408  	0.000304 
2052.260224  	-0.000893 
2054.189040  	-0.001177 
2056.117856  	-0.001473 
2058.046672  	-0.001081 
2059.975488  	-0.000644 
2061.904304  	-0.000287 
2063.833120  	-0.000271 
2065.761936  	0.000054 
2067.690752  	-0.000286 
2069.619568  	-0.000482 
2071.548384  	-0.001142 
2073.477200  	-0.000626 
2075.406016  	-0.000608 
2077.334832  	-0.000053 
2079.263648  	0.000648 
2081.192464  	0.000931 
2083.121280  	0.000101 
2085.050096  	-0.000034 
2086.978912  	-0.000255 
2088.907728  	0.000123 
2090.836544  	0.000327 
2092.765360  	0.000301 
2094.694176  	0.000565 
2096.622992  	0.001346 
2098.551808  	0.000993 
2100.480624  	0.001021 
2102.409440  	0.001033 
2104.338256  	0.001398 
2106.267072  	0.001108 
2108.195888  	0.000711 
2110.124704  	0.000488 
2112.053520  	0.000815 
2113.982336  	0.000963 
2115.911152  	0.000649 
2117.839968  	0.000006 
2119.768784  	0.000185 
2121.697600  	0.000330 
2123.626416  	0.000158 
2125.555232  	-0.000718 
2127.484048  	-0.001071 
2129.412864  	-0.000478 
2131.341680  	0.000329 
2133.270496  	0.000424 
2135.199312  	0.000706 
2137.128128  	0.000690 
2139.056944  	0.001197 
2140.985760  	0.001283 
2142.914576  	0.001566 
2144.843392  	0.000326 
2146.772208  	0.000010 
2148.701024  	0.000345 
2150.629840  	0.000038 
2152.558656  	-0.000274 
2154.487472  	0.000894 
2156.416288  	0.001167 
2158.345104  	0.004573 
2160.273920  	0.006910 
2162.202736  	0.005173 
2164.131552  	0.003442 
2166.060368  	0.004083 
2167.989184  	0.003134 
2169.918000  	0.002416 
2171.846816  	0.002407 
2173.775632  	0.003316 
2175.704448  	0.003698 
2177.633264  	0.003756 
2179.562080  	0.002069 
2181.490896  	0.002635 
2183.419712  	0.003669 
2185.348528  	0.003591 
2187.277344  	0.002491 
2189.206160  	0.001947 
2191.134976  	0.001954 
2193.063792  	0.002324 
2194.992608  	0.001675 
2196.921424  	0.001653 
2198.850240  	0.001276 
2200.779056  	0.001451 
2202.707872  	0.001380 
2204.636688  	0.001796 
2206.565504  	0.001208 
2208.494320  	0.000805 
2210.423136  	0.000842 
2212.351952  	0.001235 
2214.280768  	0.000912 
2216.209584  	0.000815 
2218.138400  	0.000241 
2220.067216  	0.000145 
2221.996032  	0.000027 
2223.924848  	0.000511 
2225.853664  	0.000959 
2227.782480  	0.001206 
2229.711296  	0.000168 
2231.640112  	0.000250 
2233.568928  	-0.000204 
2235.497744  	-0.000374 
2237.426560  	-0.000219 
2239.355376  	-0.000029 
2241.284192  	-0.000633 
2243.213008  	-0.000705 
2245.141824  	-0.000272 
2247.070640  	-0.000273 
2248.999456  	-0.000233 
2250.928272  	0.000166 
2252.857088  	-0.000173 
2254.785904  	-0.000190 
2256.714720  	0.000275 
2258.643536  	0.000818 
2260.572352  	0.000981 
2262.501168  	0.001082 
2264.429984  	0.001154 
2266.358800  	0.000696 
2268.287616  	-0.000037 
2270.216432  	0.000131 
2272.145248  	0.000706 
2274.074064  	0.001152 
2276.002880  	0.000793 
2277.931696  	0.000927 
2279.860512  	0.000880 
2281.789328  	0.000976 
2283.718144  	0.001093 
2285.646960  	0.001435 
2287.575776  	0.001417 
2289.504592  	0.001507 
2291.433408  	0.001555 
2293.362224  	0.001731 
2295.291040  	0.001763 
2297.219856  	0.001979 
2299.148672  	0.002189 
2301.077488  	0.002706 
2303.006304  	0.003253 
2304.935120  	0.003644 
2306.863936  	0.003763 
2308.792752  	0.003807 
2310.721568  	0.003689 
2312.650384  	0.003373 
2314.579200  	0.002702 
2316.508016  	0.002765 
2318.436832  	0.002992 
2320.365648  	0.003154 
2322.294464  	0.003093 
2324.223280  	0.002200 
2326.152096  	0.000488 
2328.080912  	-0.000688 
2330.009728  	-0.001214 
2331.938544  	-0.001718 
2333.867360  	-0.002557 
2335.796176  	-0.003143 
2337.724992  	-0.003705 
2339.653808  	-0.003588 
2341.582624  	-0.003223 
2343.511440  	-0.002359 
2345.440256  	-0.000771 
2347.369072  	0.000615 
2349.297888  	0.000485 
2351.226704  	-0.000838 
2353.155520  	-0.002799 
2355.084336  	-0.003952 
2357.013152  	-0.004474 
2358.941968  	-0.004792 
2360.870784  	-0.005376 
2362.799600  	-0.004735 
2364.728416  	-0.003400 
2366.657232  	-0.002658 
2368.586048  	-0.001926 
2370.514864  	-0.000102 
2372.443680  	0.000906 
2374.372496  	0.001751 
2376.301312  	0.002340 
2378.230128  	0.002673 
2380.158944  	0.002596 
2382.087760  	0.002159 
2384.016576  	0.001425 
2385.945392  	0.000728 
2387.874208  	0.000275 
2389.803024  	-0.000074 
2391.731840  	-0.000293 
2393.660656  	-0.000251 
2395.589472  	-0.000185 
2397.518288  	-0.000216 
2399.447104  	-0.000321 
2401.375920  	-0.000360 
2403.304736  	-0.000671 
2405.233552  	-0.000599 
2407.162368  	-0.000308 
2409.091184  	-0.000270 
2411.020000  	-0.000533 
2412.948816  	-0.000577 
2414.877632  	-0.000414 
2416.806448  	-0.000196 
2418.735264  	-0.000163 
2420.664080  	-0.000182 
2422.592896  	-0.000243 
2424.521712  	-0.000147 
2426.450528  	-0.000070 
2428.379344  	-0.000027 
2430.308160  	0.000035 
2432.236976  	0.000114 
2434.165792  	0.000448 
2436.094608  	0.000673 
2438.023424  	0.000544 
2439.952240  	0.000506 
2441.881056  	0.000529 
2443.809872  	0.000641 
2445.738688  	0.000684 
2447.667504  	0.000819 
2449.596320  	0.000966 
2451.525136  	0.001115 
2453.453952  	0.001193 
2455.382768  	0.001070 
2457.311584  	0.000849 
2459.240400  	0.000664 
2461.169216  	0.000878 
2463.098032  	0.001302 
2465.026848  	0.001339 
2466.955664  	0.001214 
2468.884480  	0.000929 
2470.813296  	0.000717 
2472.742112  	0.000822 
2474.670928  	0.001141 
2476.599744  	0.001345 
2478.528560  	0.001767 
2480.457376  	0.002117 
2482.386192  	0.002302 
2484.315008  	0.002209 
2486.243824  	0.002271 
2488.172640  	0.002467 
2490.101456  	0.002645 
2492.030272  	0.002679 
2493.959088  	0.002659 
2495.887904  	0.002446 
2497.816720  	0.002567 
2499.745536  	0.002652 
2501.674352  	0.002635 
2503.603168  	0.002700 
2505.531984  	0.002877 
2507.460800  	0.002851 
2509.389616  	0.002907 
2511.318432  	0.002859 
2513.247248  	0.002933 
2515.176064  	0.003113 
2517.104880  	0.003212 
2519.033696  	0.003030 
2520.962512  	0.003155 
2522.891328  	0.003102 
2524.820144  	0.003353 
2526.748960  	0.003627 
2528.677776  	0.003776 
2530.606592  	0.003798 
2532.535408  	0.004038 
2534.464224  	0.003978 
2536.393040  	0.003761 
2538.321856  	0.003966 
2540.250672  	0.004305 
2542.179488  	0.004473 
2544.108304  	0.004741 
2546.037120  	0.004858 
2547.965936  	0.004927 
2549.894752  	0.004965 
2551.823568  	0.005107 
2553.752384  	0.005212 
2555.681200  	0.005269 
2557.610016  	0.005332 
2559.538832  	0.005301 
2561.467648  	0.005521 
2563.396464  	0.005808 
2565.325280  	0.005881 
2567.254096  	0.005801 
2569.182912  	0.005667 
2571.111728  	0.005948 
2573.040544  	0.006072 
2574.969360  	0.006239 
2576.898176  	0.006342 
2578.826992  	0.006344 
2580.755808  	0.006476 
2582.684624  	0.006740 
2584.613440  	0.006796 
2586.542256  	0.006939 
2588.471072  	0.006800 
2590.399888  	0.006838 
2592.328704  	0.007151 
2594.257520  	0.007390 
2596.186336  	0.007207 
2598.115152  	0.007146 
2600.043968  	0.007396 
2601.972784  	0.007680 
2603.901600  	0.007881 
2605.830416  	0.007813 
2607.759232  	0.007741 
2609.688048  	0.007864 
2611.616864  	0.008069 
2613.545680  	0.008217 
2615.474496  	0.008414 
2617.403312  	0.008730 
2619.332128  	0.008898 
2621.260944  	0.008946 
2623.189760  	0.008884 
2625.118576  	0.008998 
2627.047392  	0.009094 
2628.976208  	0.009337 
2630.905024  	0.009590 
2632.833840  	0.009764 
2634.762656  	0.009836 
2636.691472  	0.009965 
2638.620288  	0.010126 
2640.549104  	0.010241 
2642.477920  	0.010506 
2644.406736  	0.010618 
2646.335552  	0.010757 
2648.264368  	0.010943 
2650.193184  	0.011057 
2652.122000  	0.011222 
2654.050816  	0.011355 
2655.979632  	0.011457 
2657.908448  	0.011637 
2659.837264  	0.011826 
2661.766080  	0.011901 
2663.694896  	0.011969 
2665.623712  	0.012133 
2667.552528  	0.012393 
2669.481344  	0.012516 
2671.410160  	0.012552 
2673.338976  	0.012750 
2675.267792  	0.013001 
2677.196608  	0.013195 
2679.125424  	0.013289 
2681.054240  	0.013390 
2682.983056  	0.013568 
2684.911872  	0.013724 
2686.840688  	0.013863 
2688.769504  	0.013967 
2690.698320  	0.014102 
2692.627136  	0.014244 
2694.555952  	0.014426 
2696.484768  	0.014586 
2698.413584  	0.014691 
2700.342400  	0.014727 
2702.271216  	0.014976 
2704.200032  	0.015241 
2706.128848  	0.015368 
2708.057664  	0.015585 
2709.986480  	0.015751 
2711.915296  	0.015872 
2713.844112  	0.016037 
2715.772928  	0.016162 
2717.701744  	0.016238 
2719.630560  	0.016463 
2721.559376  	0.016711 
2723.488192  	0.016859 
2725.417008  	0.017021 
2727.345824  	0.017182 
2729.274640  	0.017434 
2731.203456  	0.017662 
2733.132272  	0.017777 
2735.061088  	0.017909 
2736.989904  	0.018085 
2738.918720  	0.018287 
2740.847536  	0.018422 
2742.776352  	0.018574 
2744.705168  	0.018732 
2746.633984  	0.018815 
2748.562800  	0.018989 
2750.491616  	0.019066 
2752.420432  	0.019161 
2754.349248  	0.019198 
2756.278064  	0.019169 
2758.206880  	0.019144 
2760.135696  	0.019213 
2762.064512  	0.019284 
2763.993328  	0.019289 
2765.922144  	0.019358 
2767.850960  	0.019473 
2769.779776  	0.019432 
2771.708592  	0.019422 
2773.637408  	0.019427 
2775.566224  	0.019451 
2777.495040  	0.019422 
2779.423856  	0.019378 
2781.352672  	0.019480 
2783.281488  	0.019607 
2785.210304  	0.019569 
2787.139120  	0.019583 
2789.067936  	0.019522 
2790.996752  	0.019539 
2792.925568  	0.019710 
2794.854384  	0.019792 
2796.783200  	0.019682 
2798.712016  	0.019584 
2800.640832  	0.019638 
2802.569648  	0.019801 
2804.498464  	0.019875 
2806.427280  	0.019984 
2808.356096  	0.020115 
2810.284912  	0.020139 
2812.213728  	0.020116 
2814.142544  	0.020208 
2816.071360  	0.020205 
2818.000176  	0.020229 
2819.928992  	0.020350 
2821.857808  	0.020302 
2823.786624  	0.020220 
2825.715440  	0.020273 
2827.644256  	0.020324 
2829.573072  	0.020301 
2831.501888  	0.020249 
2833.430704  	0.020244 
2835.359520  	0.020226 
2837.288336  	0.020157 
2839.217152  	0.020078 
2841.145968  	0.019923 
2843.074784  	0.019938 
2845.003600  	0.020061 
2846.932416  	0.020062 
2848.861232  	0.020203 
2850.790048  	0.020311 
2852.718864  	0.020324 
2854.647680  	0.020379 
2856.576496  	0.020537 
2858.505312  	0.020629 
2860.434128  	0.020661 
2862.362944  	0.020714 
2864.291760  	0.020715 
2866.220576  	0.020746 
2868.149392  	0.020873 
2870.078208  	0.021091 
2872.007024  	0.021477 
2873.935840  	0.021891 
2875.864656  	0.022288 
2877.793472  	0.022691 
2879.722288  	0.023196 
2881.651104  	0.023583 
2883.579920  	0.023853 
2885.508736  	0.024228 
2887.437552  	0.024626 
2889.366368  	0.024803 
2891.295184  	0.025010 
2893.224000  	0.025106 
2895.152816  	0.025102 
2897.081632  	0.025124 
2899.010448  	0.024856 
2900.939264  	0.024529 
2902.868080  	0.024838 
2904.796896  	0.025343 
2906.725712  	0.025577 
2908.654528  	0.025805 
2910.583344  	0.026171 
2912.512160  	0.026557 
2914.440976  	0.027107 
2916.369792  	0.027747 
2918.298608  	0.028310 
2920.227424  	0.028843 
2922.156240  	0.029423 
2924.085056  	0.030081 
2926.013872  	0.030721 
2927.942688  	0.031454 
2929.871504  	0.032325 
2931.800320  	0.033053 
2933.729136  	0.033800 
2935.657952  	0.034573 
2937.586768  	0.035314 
2939.515584  	0.035786 
2941.444400  	0.036201 
2943.373216  	0.036640 
2945.302032  	0.037053 
2947.230848  	0.037398 
2949.159664  	0.037421 
2951.088480  	0.037281 
2953.017296  	0.037249 
2954.946112  	0.037110 
2956.874928  	0.036857 
2958.803744  	0.036646 
2960.732560  	0.036628 
2962.661376  	0.036481 
2964.590192  	0.036146 
2966.519008  	0.035862 
2968.447824  	0.035526 
2970.376640  	0.035248 
2972.305456  	0.035024 
2974.234272  	0.035028 
2976.163088  	0.034934 
2978.091904  	0.034702 
2980.020720  	0.034673 
2981.949536  	0.034667 
2983.878352  	0.034541 
2985.807168  	0.034489 
2987.735984  	0.034509 
2989.664800  	0.034626 
2991.593616  	0.035122 
2993.522432  	0.035493 
2995.451248  	0.035683 
2997.380064  	0.035980 
2999.308880  	0.036566 
3001.237696  	0.037190 
3003.166512  	0.037792 
3005.095328  	0.038292 
3007.024144  	0.038795 
3008.952960  	0.039514 
3010.881776  	0.040236 
3012.810592  	0.040976 
3014.739408  	0.041489 
3016.668224  	0.041933 
3018.597040  	0.042546 
3020.525856  	0.043072 
3022.454672  	0.043526 
3024.383488  	0.044263 
3026.312304  	0.045030 
3028.241120  	0.045514 
3030.169936  	0.046052 
3032.098752  	0.046893 
3034.027568  	0.047447 
3035.956384  	0.048026 
3037.885200  	0.048501 
3039.814016  	0.049064 
3041.742832  	0.049675 
3043.671648  	0.050342 
3045.600464  	0.051087 
3047.529280  	0.051776 
3049.458096  	0.052447 
3051.386912  	0.053077 
3053.315728  	0.053843 
3055.244544  	0.054584 
3057.173360  	0.055327 
3059.102176  	0.056162 
3061.030992  	0.056965 
3062.959808  	0.057816 
3064.888624  	0.058857 
3066.817440  	0.059889 
3068.746256  	0.060774 
3070.675072  	0.061459 
3072.603888  	0.062210 
3074.532704  	0.063247 
3076.461520  	0.064209 
3078.390336  	0.065224 
3080.319152  	0.066288 
3082.247968  	0.067123 
3084.176784  	0.067903 
3086.105600  	0.068898 
3088.034416  	0.069989 
3089.963232  	0.070731 
3091.892048  	0.071504 
3093.820864  	0.072444 
3095.749680  	0.073659 
3097.678496  	0.074806 
3099.607312  	0.075876 
3101.536128  	0.077131 
3103.464944  	0.077997 
3105.393760  	0.078733 
3107.322576  	0.079650 
3109.251392  	0.080544 
3111.180208  	0.081369 
3113.109024  	0.082178 
3115.037840  	0.083098 
3116.966656  	0.084132 
3118.895472  	0.084942 
3120.824288  	0.085752 
3122.753104  	0.086603 
3124.681920  	0.087248 
3126.610736  	0.087938 
3128.539552  	0.088547 
3130.468368  	0.089130 
3132.397184  	0.090136 
3134.326000  	0.090962 
3136.254816  	0.091498 
3138.183632  	0.092256 
3140.112448  	0.092919 
3142.041264  	0.093632 
3143.970080  	0.094442 
3145.898896  	0.095224 
3147.827712  	0.096015 
3149.756528  	0.096910 
3151.685344  	0.097628 
3153.614160  	0.098167 
3155.542976  	0.098899 
3157.471792  	0.099776 
3159.400608  	0.100597 
3161.329424  	0.101340 
3163.258240  	0.102074 
3165.187056  	0.102697 
3167.115872  	0.103192 
3169.044688  	0.103915 
3170.973504  	0.104524 
3172.902320  	0.104948 
3174.831136  	0.105310 
3176.759952  	0.105836 
3178.688768  	0.106572 
3180.617584  	0.107011 
3182.546400  	0.107193 
3184.475216  	0.107511 
3186.404032  	0.107934 
3188.332848  	0.108303 
3190.261664  	0.108416 
3192.190480  	0.108420 
3194.119296  	0.108502 
3196.048112  	0.108568 
3197.976928  	0.108992 
3199.905744  	0.109230 
3201.834560  	0.109154 
3203.763376  	0.108887 
3205.692192  	0.108499 
3207.621008  	0.108487 
3209.549824  	0.108713 
3211.478640  	0.108690 
3213.407456  	0.108568 
3215.336272  	0.108799 
3217.265088  	0.108575 
3219.193904  	0.108394 
3221.122720  	0.108305 
3223.051536  	0.107900 
3224.980352  	0.107602 
3226.909168  	0.107626 
3228.837984  	0.107621 
3230.766800  	0.107386 
3232.695616  	0.107353 
3234.624432  	0.107382 
3236.553248  	0.107538 
3238.482064  	0.107701 
3240.410880  	0.107434 
3242.339696  	0.107310 
3244.268512  	0.107487 
3246.197328  	0.107711 
3248.126144  	0.107650 
3250.054960  	0.107889 
3251.983776  	0.108157 
3253.912592  	0.108631 
3255.841408  	0.108930 
3257.770224  	0.108978 
3259.699040  	0.109279 
3261.627856  	0.109553 
3263.556672  	0.109588 
3265.485488  	0.109895 
3267.414304  	0.110137 
3269.343120  	0.110403 
3271.271936  	0.110660 
3273.200752  	0.110926 
3275.129568  	0.111005 
3277.058384  	0.110994 
3278.987200  	0.110981 
3280.916016  	0.111274 
3282.844832  	0.111586 
3284.773648  	0.111727 
3286.702464  	0.111829 
3288.631280  	0.112221 
3290.560096  	0.112522 
3292.488912  	0.112638 
3294.417728  	0.112880 
3296.346544  	0.113199 
3298.275360  	0.113452 
3300.204176  	0.113614 
3302.132992  	0.113698 
3304.061808  	0.114140 
3305.990624  	0.114617 
3307.919440  	0.115039 
3309.848256  	0.115441 
3311.777072  	0.115832 
3313.705888  	0.116102 
3315.634704  	0.116290 
3317.563520  	0.116495 
3319.492336  	0.116642 
3321.421152  	0.117075 
3323.349968  	0.117325 
3325.278784  	0.117414 
3327.207600  	0.117596 
3329.136416  	0.117502 
3331.065232  	0.117436 
3332.994048  	0.117574 
3334.922864  	0.117800 
3336.851680  	0.117724 
3338.780496  	0.117595 
3340.709312  	0.117329 
3342.638128  	0.117088 
3344.566944  	0.116657 
3346.495760  	0.116341 
3348.424576  	0.116169 
3350.353392  	0.116166 
3352.282208  	0.115888 
3354.211024  	0.115365 
3356.139840  	0.114859 
3358.068656  	0.114311 
3359.997472  	0.113974 
3361.926288  	0.113772 
3363.855104  	0.113442 
3365.783920  	0.113137 
3367.712736  	0.112622 
3369.641552  	0.112101 
3371.570368  	0.111506 
3373.499184  	0.111326 
3375.428000  	0.111179 
3377.356816  	0.110792 
3379.285632  	0.110239 
3381.214448  	0.109764 
3383.143264  	0.109573 
3385.072080  	0.109461 
3387.000896  	0.108751 
3388.929712  	0.108086 
3390.858528  	0.107650 
3392.787344  	0.107754 
3394.716160  	0.107257 
3396.644976  	0.106751 
3398.573792  	0.106021 
3400.502608  	0.105050 
3402.431424  	0.104364 
3404.360240  	0.103865 
3406.289056  	0.103270 
3408.217872  	0.102657 
3410.146688  	0.101929 
3412.075504  	0.101335 
3414.004320  	0.100860 
3415.933136  	0.100436 
3417.861952  	0.099834 
3419.790768  	0.099635 
3421.719584  	0.099136 
3423.648400  	0.097930 
3425.577216  	0.097005 
3427.506032  	0.096629 
3429.434848  	0.096004 
3431.363664  	0.095263 
3433.292480  	0.094607 
3435.221296  	0.093950 
3437.150112  	0.093048 
3439.078928  	0.092176 
3441.007744  	0.091562 
3442.936560  	0.091150 
3444.865376  	0.090132 
3446.794192  	0.090053 
3448.723008  	0.089505 
3450.651824  	0.087892 
3452.580640  	0.086909 
3454.509456  	0.086179 
3456.438272  	0.085430 
3458.367088  	0.084668 
3460.295904  	0.083833 
3462.224720  	0.083084 
3464.153536  	0.081979 
3466.082352  	0.080911 
3468.011168  	0.080163 
3469.939984  	0.079204 
3471.868800  	0.078180 
3473.797616  	0.077154 
3475.726432  	0.076051 
3477.655248  	0.074810 
3479.584064  	0.073946 
3481.512880  	0.073869 
3483.441696  	0.073164 
3485.370512  	0.071589 
3487.299328  	0.070774 
3489.228144  	0.069786 
3491.156960  	0.068265 
3493.085776  	0.067352 
3495.014592  	0.066719 
3496.943408  	0.065928 
3498.872224  	0.064875 
3500.801040  	0.064634 
3502.729856  	0.064813 
3504.658672  	0.063919 
3506.587488  	0.061868 
3508.516304  	0.061245 
3510.445120  	0.061023 
3512.373936  	0.059542 
3514.302752  	0.058278 
3516.231568  	0.057363 
3518.160384  	0.056588 
3520.089200  	0.055691 
3522.018016  	0.055480 
3523.946832  	0.056108 
3525.875648  	0.055269 
3527.804464  	0.054259 
3529.733280  	0.053062 
3531.662096  	0.051291 
3533.590912  	0.049688 
3535.519728  	0.049453 
3537.448544  	0.049241 
3539.377360  	0.047705 
3541.306176  	0.046536 
3543.234992  	0.046499 
3545.163808  	0.047549 
3547.092624  	0.047416 
3549.021440  	0.044861 
3550.950256  	0.043344 
3552.879072  	0.043613 
3554.807888  	0.042017 
3556.736704  	0.040133 
3558.665520  	0.040015 
3560.594336  	0.040087 
3562.523152  	0.038967 
3564.451968  	0.038794 
3566.380784  	0.041746 
3568.309600  	0.042015 
3570.238416  	0.037299 
3572.167232  	0.034370 
3574.096048  	0.033462 
3576.024864  	0.032730 
3577.953680  	0.031987 
3579.882496  	0.031389 
3581.811312  	0.030104 
3583.740128  	0.029076 
3585.668944  	0.029560 
3587.597760  	0.032002 
3589.526576  	0.029834 
3591.455392  	0.026204 
3593.384208  	0.025692 
3595.313024  	0.025828 
3597.241840  	0.024417 
3599.170656  	0.022918 
3601.099472  	0.022249 
3603.028288  	0.020645 
3604.957104  	0.018977 
3606.885920  	0.019565 
3608.814736  	0.020376 
3610.743552  	0.018511 
3612.672368  	0.018278 
3614.601184  	0.017884 
3616.530000  	0.015562 
3618.458816  	0.015592 
3620.387632  	0.015459 
3622.316448  	0.012201 
3624.245264  	0.009885 
3626.174080  	0.009005 
3628.102896  	0.010982 
3630.031712  	0.013393 
3631.960528  	0.008899 
3633.889344  	0.006986 
3635.818160  	0.005526 
3637.746976  	0.003963 
3639.675792  	0.003096 
3641.604608  	0.002437 
3643.533424  	0.001402 
3645.462240  	0.000512 
3647.391056  	0.002909 
3649.319872  	0.005058 
3651.248688  	0.003731 
3653.177504  	-0.001151 
3655.106320  	-0.003244 
3657.035136  	-0.002426 
3658.963952  	-0.004055 
3660.892768  	-0.005309 
3662.821584  	-0.006181 
3664.750400  	-0.007114 
3666.679216  	-0.007660 
3668.608032  	-0.006851 
3670.536848  	-0.004024 
3672.465664  	-0.006108 
3674.394480  	-0.006672 
3676.323296  	-0.003185 
3678.252112  	-0.005888 
3680.180928  	-0.007712 
3682.109744  	-0.009292 
3684.038560  	-0.010111 
3685.967376  	-0.010985 
3687.896192  	-0.009569 
3689.825008  	-0.006705 
3691.753824  	-0.007368 
3693.682640  	-0.009318 
3695.611456  	-0.010293 
3697.540272  	-0.010634 
3699.469088  	-0.011767 
3701.397904  	-0.010736 
3703.326720  	-0.009908 
3705.255536  	-0.010750 
3707.184352  	-0.011067 
3709.113168  	-0.010265 
3711.041984  	-0.007691 
3712.970800  	-0.006722 
3714.899616  	-0.009032 
3716.828432  	-0.010860 
3718.757248  	-0.010724 
3720.686064  	-0.010477 
3722.614880  	-0.009516 
3724.543696  	-0.008835 
3726.472512  	-0.008166 
3728.401328  	-0.009857 
3730.330144  	-0.011840 
3732.258960  	-0.010585 
3734.187776  	-0.007240 
3736.116592  	-0.003821 
3738.045408  	-0.006434 
3739.974224  	-0.008939 
3741.903040  	-0.010314 
3743.831856  	-0.009210 
3745.760672  	-0.006357 
3747.689488  	-0.009055 
3749.618304  	-0.007862 
3751.547120  	-0.005262 
3753.475936  	-0.006882 
3755.404752  	-0.009520 
3757.333568  	-0.009720 
3759.262384  	-0.008811 
3761.191200  	-0.009356 
3763.120016  	-0.011119 
3765.048832  	-0.010314 
3766.977648  	-0.010038 
3768.906464  	-0.010307 
3770.835280  	-0.009470 
3772.764096  	-0.010905 
3774.692912  	-0.011942 
3776.621728  	-0.012049 
3778.550544  	-0.011023 
3780.479360  	-0.010140 
3782.408176  	-0.011454 
3784.336992  	-0.011152 
3786.265808  	-0.010737 
3788.194624  	-0.011457 
3790.123440  	-0.011780 
3792.052256  	-0.012036 
3793.981072  	-0.012509 
3795.909888  	-0.011131 
3797.838704  	-0.009680 
3799.767520  	-0.010533 
3801.696336  	-0.007781 
3803.625152  	-0.008933 
3805.553968  	-0.011348 
3807.482784  	-0.009808 
3809.411600  	-0.010702 
3811.340416  	-0.012020 
3813.269232  	-0.012789 
3815.198048  	-0.011320 
3817.126864  	-0.008918 
3819.055680  	-0.010336 
3820.984496  	-0.008074 
3822.913312  	-0.007951 
3824.842128  	-0.010514 
3826.770944  	-0.010383 
3828.699760  	-0.010978 
3830.628576  	-0.011588 
3832.557392  	-0.010942 
3834.486208  	-0.011181 
3836.415024  	-0.010714 
3838.343840  	-0.008488 
3840.272656  	-0.007312 
3842.201472  	-0.008635 
3844.130288  	-0.009228 
3846.059104  	-0.010671 
3847.987920  	-0.011946 
3849.916736  	-0.012141 
3851.845552  	-0.010859 
3853.774368  	-0.004939 
3855.703184  	-0.005895 
3857.632000  	-0.008713 
3859.560816  	-0.010844 
3861.489632  	-0.010908 
3863.418448  	-0.009346 
3865.347264  	-0.007981 
3867.276080  	-0.010071 
3869.204896  	-0.009064 
3871.133712  	-0.006761 
3873.062528  	-0.008851 
3874.991344  	-0.008925 
3876.920160  	-0.011247 
3878.848976  	-0.011566 
3880.777792  	-0.008508 
3882.706608  	-0.008813 
3884.635424  	-0.009575 
3886.564240  	-0.008727 
3888.493056  	-0.011336 
3890.421872  	-0.011136 
3892.350688  	-0.009104 
3894.279504  	-0.010361 
3896.208320  	-0.011749 
3898.137136  	-0.010928 
3900.065952  	-0.008843 
3901.994768  	-0.008110 
3903.923584  	-0.007199 
3905.852400  	-0.007783 
3907.781216  	-0.010571 
3909.710032  	-0.012232 
3911.638848  	-0.012538 
3913.567664  	-0.012540 
3915.496480  	-0.011487 
3917.425296  	-0.009544 
3919.354112  	-0.009687 
3921.282928  	-0.010309 
3923.211744  	-0.010300 
3925.140560  	-0.009479 
3927.069376  	-0.010738 
3928.998192  	-0.010984 
3930.927008  	-0.009646 
3932.855824  	-0.009129 
3934.784640  	-0.010654 
3936.713456  	-0.011668 
3938.642272  	-0.011731 
3940.571088  	-0.011600 
3942.499904  	-0.009986 
3944.428720  	-0.010077 
3946.357536  	-0.011144 
3948.286352  	-0.010161 
3950.215168  	-0.010316 
3952.143984  	-0.011571 
3954.072800  	-0.012059 
3956.001616  	-0.011782 
3957.930432  	-0.011487 
3959.859248  	-0.011357 
3961.788064  	-0.011079 
3963.716880  	-0.011392 
3965.645696  	-0.012047 
3967.574512  	-0.012177 
3969.503328  	-0.012073 
3971.432144  	-0.011901 
3973.360960  	-0.011501 
3975.289776  	-0.010951 
3977.218592  	-0.011257 
3979.147408  	-0.011792 
3981.076224  	-0.011852 
3983.005040  	-0.011829 
3984.933856  	-0.011799 
3986.862672  	-0.011756 
3988.791488  	-0.011891 
3990.720304  	-0.011492 
3992.649120  	-0.011504 
3994.577936  	-0.011680 
3996.506752  	-0.011868 
3998.435568  	-0.012135 
4000.364384  	-0.012105 