##TITLE=No Description
##DATA TYPE=INFRARED SPECTRUM
##XUNITS=1/CM
##YUNITS=Abs
399.264912  	0.599830 
401.193728  	0.576053 
403.122544  	0.584619 
405.051360  	0.589812 
406.980176  	0.584514 
408.908992  	0.572864 
410.837808  	0.581604 
412.766624  	0.584981 
414.695440  	0.580942 
416.624256  	0.577033 
418.553072  	0.576929 
420.481888  	0.575880 
422.410704  	0.583209 
424.339520  	0.576599 
426.268336  	0.563601 
428.197152  	0.551862 
430.125968  	0.547320 
432.054784  	0.541506 
433.983600  	0.543358 
435.912416  	0.539007 
437.841232  	0.541005 
439.770048  	0.546901 
441.698864  	0.547524 
443.627680  	0.541900 
445.556496  	0.543470 
447.485312  	0.540826 
449.414128  	0.541608 
451.342944  	0.546260 
453.271760  	0.547882 
455.200576  	0.544463 
457.129392  	0.549146 
459.058208  	0.546672 
460.987024  	0.550401 
462.915840  	0.554660 
464.844656  	0.558791 
466.773472  	0.555220 
468.702288  	0.550680 
470.631104  	0.548171 
472.559920  	0.552164 
474.488736  	0.548857 
476.417552  	0.553128 
478.346368  	0.554752 
480.275184  	0.553512 
482.204000  	0.548277 
484.132816  	0.549837 
486.061632  	0.549534 
487.990448  	0.550918 
489.919264  	0.550500 
491.848080  	0.548207 
493.776896  	0.543120 
495.705712  	0.545614 
497.634528  	0.543241 
499.563344  	0.541066 
501.492160  	0.536465 
503.420976  	0.538007 
505.349792  	0.537688 
507.278608  	0.537591 
509.207424  	0.533315 
511.136240  	0.536406 
513.065056  	0.538773 
514.993872  	0.541442 
516.922688  	0.545305 
518.851504  	0.551433 
520.780320  	0.552288 
522.709136  	0.551936 
524.637952  	0.551416 
526.566768  	0.549811 
528.495584  	0.543011 
530.424400  	0.538724 
532.353216  	0.532524 
534.282032  	0.526326 
536.210848  	0.518116 
538.139664  	0.510256 
540.068480  	0.503748 
541.997296  	0.500622 
543.926112  	0.497608 
545.854928  	0.494417 
547.783744  	0.489392 
549.712560  	0.486828 
551.641376  	0.482495 
553.570192  	0.479659 
555.499008  	0.476227 
557.427824  	0.472564 
559.356640  	0.468834 
561.285456  	0.466685 
563.214272  	0.462611 
565.143088  	0.458400 
567.071904  	0.454572 
569.000720  	0.451297 
570.929536  	0.447500 
572.858352  	0.445087 
574.787168  	0.441505 
576.715984  	0.438699 
578.644800  	0.433975 
580.573616  	0.428003 
582.502432  	0.421497 
584.431248  	0.416644 
586.360064  	0.412491 
588.288880  	0.409729 
590.217696  	0.406626 
592.146512  	0.405379 
594.075328  	0.403868 
596.004144  	0.401652 
597.932960  	0.399333 
599.861776  	0.398438 
601.790592  	0.397265 
603.719408  	0.396028 
605.648224  	0.394687 
607.577040  	0.394732 
609.505856  	0.393803 
611.434672  	0.391979 
613.363488  	0.390348 
615.292304  	0.389140 
617.221120  	0.387827 
619.149936  	0.387182 
621.078752  	0.386009 
623.007568  	0.385685 
624.936384  	0.384804 
626.865200  	0.384098 
628.794016  	0.383902 
630.722832  	0.383879 
632.651648  	0.383951 
634.580464  	0.384768 
636.509280  	0.385841 
638.438096  	0.386352 
640.366912  	0.386074 
642.295728  	0.384645 
644.224544  	0.381728 
646.153360  	0.378354 
648.082176  	0.373599 
650.010992  	0.369367 
651.939808  	0.365620 
653.868624  	0.362038 
655.797440  	0.357348 
657.726256  	0.353218 
659.655072  	0.348463 
661.583888  	0.343162 
663.512704  	0.337938 
665.441520  	0.333492 
667.370336  	0.329413 
669.299152  	0.323222 
671.227968  	0.317964 
673.156784  	0.313911 
675.085600  	0.310963 
677.014416  	0.308262 
678.943232  	0.305691 
680.872048  	0.304363 
682.800864  	0.303458 
684.729680  	0.302146 
686.658496  	0.300320 
688.587312  	0.298881 
690.516128  	0.297975 
692.444944  	0.297541 
694.373760  	0.296191 
696.302576  	0.294920 
698.231392  	0.293116 
700.160208  	0.290586 
702.089024  	0.287645 
704.017840  	0.285048 
705.946656  	0.282580 
707.875472  	0.279958 
709.804288  	0.277559 
711.733104  	0.276206 
713.661920  	0.274711 
715.590736  	0.273636 
717.519552  	0.273476 
719.448368  	0.274452 
721.377184  	0.276271 
723.306000  	0.277762 
725.234816  	0.278598 
727.163632  	0.277516 
729.092448  	0.274169 
731.021264  	0.269823 
732.950080  	0.265346 
734.878896  	0.261099 
736.807712  	0.257542 
738.736528  	0.254786 
740.665344  	0.252705 
742.594160  	0.251105 
744.522976  	0.249587 
746.451792  	0.248344 
748.380608  	0.247291 
750.309424  	0.245948 
752.238240  	0.244659 
754.167056  	0.244125 
756.095872  	0.243835 
758.024688  	0.243021 
759.953504  	0.243015 
761.882320  	0.245282 
763.811136  	0.246726 
765.739952  	0.244611 
767.668768  	0.240400 
769.597584  	0.237352 
771.526400  	0.237165 
773.455216  	0.240212 
775.384032  	0.246234 
777.312848  	0.254275 
779.241664  	0.259899 
781.170480  	0.259152 
783.099296  	0.252461 
785.028112  	0.243805 
786.956928  	0.236252 
788.885744  	0.230470 
790.814560  	0.225978 
792.743376  	0.223823 
794.672192  	0.223483 
796.601008  	0.222365 
798.529824  	0.218418 
800.458640  	0.213492 
802.387456  	0.209796 
804.316272  	0.207786 
806.245088  	0.206863 
808.173904  	0.206543 
810.102720  	0.206685 
812.031536  	0.207177 
813.960352  	0.208089 
815.889168  	0.209312 
817.817984  	0.211265 
819.746800  	0.213537 
821.675616  	0.215827 
823.604432  	0.217578 
825.533248  	0.218907 
827.462064  	0.220079 
829.390880  	0.220502 
831.319696  	0.220400 
833.248512  	0.219324 
835.177328  	0.217137 
837.106144  	0.213765 
839.034960  	0.209275 
840.963776  	0.203709 
842.892592  	0.197945 
844.821408  	0.192403 
846.750224  	0.187665 
848.679040  	0.183615 
850.607856  	0.180735 
852.536672  	0.179059 
854.465488  	0.177978 
856.394304  	0.176913 
858.323120  	0.175545 
860.251936  	0.174090 
862.180752  	0.172468 
864.109568  	0.170279 
866.038384  	0.167847 
867.967200  	0.165489 
869.896016  	0.163850 
871.824832  	0.163378 
873.753648  	0.164119 
875.682464  	0.165551 
877.611280  	0.168358 
879.540096  	0.172217 
881.468912  	0.176312 
883.397728  	0.180221 
885.326544  	0.183437 
887.255360  	0.185470 
889.184176  	0.186154 
891.112992  	0.185205 
893.041808  	0.182903 
894.970624  	0.179196 
896.899440  	0.173770 
898.828256  	0.167025 
900.757072  	0.160446 
902.685888  	0.155023 
904.614704  	0.152042 
906.543520  	0.152368 
908.472336  	0.155321 
910.401152  	0.159657 
912.329968  	0.164132 
914.258784  	0.168539 
916.187600  	0.172959 
918.116416  	0.176416 
920.045232  	0.178986 
921.974048  	0.181174 
923.902864  	0.183124 
925.831680  	0.184925 
927.760496  	0.187102 
929.689312  	0.189489 
931.618128  	0.192045 
933.546944  	0.193690 
935.475760  	0.194368 
937.404576  	0.194105 
939.333392  	0.193174 
941.262208  	0.192539 
943.191024  	0.194226 
945.119840  	0.199376 
947.048656  	0.208389 
948.977472  	0.221847 
950.906288  	0.239159 
952.835104  	0.259700 
954.763920  	0.282330 
956.692736  	0.304354 
958.621552  	0.323750 
960.550368  	0.336700 
962.479184  	0.342260 
964.408000  	0.339817 
966.336816  	0.330293 
968.265632  	0.314268 
970.194448  	0.294182 
972.123264  	0.271620 
974.052080  	0.248854 
975.980896  	0.227120 
977.909712  	0.207389 
979.838528  	0.190186 
981.767344  	0.176093 
983.696160  	0.165635 
985.624976  	0.159093 
987.553792  	0.157232 
989.482608  	0.160016 
991.411424  	0.166752 
993.340240  	0.176386 
995.269056  	0.187402 
997.197872  	0.199096 
999.126688  	0.210911 
1001.055504  	0.223101 
1002.984320  	0.234870 
1004.913136  	0.246751 
1006.841952  	0.258335 
1008.770768  	0.268673 
1010.699584  	0.277100 
1012.628400  	0.283070 
1014.557216  	0.286400 
1016.486032  	0.287706 
1018.414848  	0.287198 
1020.343664  	0.286307 
1022.272480  	0.285399 
1024.201296  	0.284678 
1026.130112  	0.283999 
1028.058928  	0.285199 
1029.987744  	0.288755 
1031.916560  	0.294202 
1033.845376  	0.301226 
1035.774192  	0.310921 
1037.703008  	0.323535 
1039.631824  	0.340514 
1041.560640  	0.362319 
1043.489456  	0.388688 
1045.418272  	0.415281 
1047.347088  	0.437486 
1049.275904  	0.449817 
1051.204720  	0.451805 
1053.133536  	0.445615 
1055.062352  	0.436011 
1056.991168  	0.425889 
1058.919984  	0.418271 
1060.848800  	0.412037 
1062.777616  	0.407713 
1064.706432  	0.402722 
1066.635248  	0.396553 
1068.564064  	0.387692 
1070.492880  	0.377438 
1072.421696  	0.368010 
1074.350512  	0.363000 
1076.279328  	0.363380 
1078.208144  	0.369638 
1080.136960  	0.376789 
1082.065776  	0.380904 
1083.994592  	0.378208 
1085.923408  	0.368548 
1087.852224  	0.353525 
1089.781040  	0.336829 
1091.709856  	0.318449 
1093.638672  	0.299465 
1095.567488  	0.279513 
1097.496304  	0.259971 
1099.425120  	0.241053 
1101.353936  	0.223326 
1103.282752  	0.207125 
1105.211568  	0.192438 
1107.140384  	0.178970 
1109.069200  	0.166998 
1110.998016  	0.156150 
1112.926832  	0.146403 
1114.855648  	0.137659 
1116.784464  	0.129039 
1118.713280  	0.120551 
1120.642096  	0.112566 
1122.570912  	0.105131 
1124.499728  	0.098403 
1126.428544  	0.092764 
1128.357360  	0.087699 
1130.286176  	0.083442 
1132.214992  	0.080090 
1134.143808  	0.077791 
1136.072624  	0.075989 
1138.001440  	0.074203 
1139.930256  	0.072477 
1141.859072  	0.070615 
1143.787888  	0.068332 
1145.716704  	0.066351 
1147.645520  	0.064617 
1149.574336  	0.063650 
1151.503152  	0.063145 
1153.431968  	0.063253 
1155.360784  	0.063913 
1157.289600  	0.065487 
1159.218416  	0.067669 
1161.147232  	0.070530 
1163.076048  	0.073664 
1165.004864  	0.076731 
1166.933680  	0.079482 
1168.862496  	0.082584 
1170.791312  	0.086004 
1172.720128  	0.089895 
1174.648944  	0.094349 
1176.577760  	0.099060 
1178.506576  	0.103925 
1180.435392  	0.108918 
1182.364208  	0.113809 
1184.293024  	0.119179 
1186.221840  	0.125573 
1188.150656  	0.132936 
1190.079472  	0.141237 
1192.008288  	0.150921 
1193.937104  	0.162136 
1195.865920  	0.174527 
1197.794736  	0.187806 
1199.723552  	0.201653 
1201.652368  	0.215425 
1203.581184  	0.228368 
1205.510000  	0.240380 
1207.438816  	0.250518 
1209.367632  	0.258753 
1211.296448  	0.264881 
1213.225264  	0.269119 
1215.154080  	0.270946 
1217.082896  	0.271280 
1219.011712  	0.269797 
1220.940528  	0.267400 
1222.869344  	0.264096 
1224.798160  	0.260197 
1226.726976  	0.254924 
1228.655792  	0.248939 
1230.584608  	0.242174 
1232.513424  	0.234887 
1234.442240  	0.226878 
1236.371056  	0.218419 
1238.299872  	0.209292 
1240.228688  	0.199861 
1242.157504  	0.190508 
1244.086320  	0.181361 
1246.015136  	0.172253 
1247.943952  	0.163345 
1249.872768  	0.154694 
1251.801584  	0.146481 
1253.730400  	0.138702 
1255.659216  	0.131117 
1257.588032  	0.123734 
1259.516848  	0.117081 
1261.445664  	0.110938 
1263.374480  	0.105182 
1265.303296  	0.100292 
1267.232112  	0.096530 
1269.160928  	0.093913 
1271.089744  	0.092314 
1273.018560  	0.091642 
1274.947376  	0.092099 
1276.876192  	0.093395 
1278.805008  	0.094418 
1280.733824  	0.094267 
1282.662640  	0.092488 
1284.591456  	0.090018 
1286.520272  	0.087966 
1288.449088  	0.086971 
1290.377904  	0.087212 
1292.306720  	0.088843 
1294.235536  	0.090293 
1296.164352  	0.090135 
1298.093168  	0.087738 
1300.021984  	0.084287 
1301.950800  	0.080507 
1303.879616  	0.076458 
1305.808432  	0.071954 
1307.737248  	0.067222 
1309.666064  	0.062590 
1311.594880  	0.059205 
1313.523696  	0.056687 
1315.452512  	0.054970 
1317.381328  	0.054417 
1319.310144  	0.054638 
1321.238960  	0.055111 
1323.167776  	0.056129 
1325.096592  	0.057237 
1327.025408  	0.057922 
1328.954224  	0.057860 
1330.883040  	0.056943 
1332.811856  	0.055351 
1334.740672  	0.054033 
1336.669488  	0.053559 
1338.598304  	0.054138 
1340.527120  	0.053662 
1342.455936  	0.052274 
1344.384752  	0.052107 
1346.313568  	0.052727 
1348.242384  	0.053743 
1350.171200  	0.055172 
1352.100016  	0.057075 
1354.028832  	0.059678 
1355.957648  	0.062364 
1357.886464  	0.064964 
1359.815280  	0.067839 
1361.744096  	0.071500 
1363.672912  	0.074677 
1365.601728  	0.076529 
1367.530544  	0.079098 
1369.459360  	0.081670 
1371.388176  	0.082920 
1373.316992  	0.083206 
1375.245808  	0.081318 
1377.174624  	0.077903 
1379.103440  	0.074335 
1381.032256  	0.070811 
1382.961072  	0.067861 
1384.889888  	0.066011 
1386.818704  	0.064855 
1388.747520  	0.062350 
1390.676336  	0.059596 
1392.605152  	0.057756 
1394.533968  	0.056999 
1396.462784  	0.057025 
1398.391600  	0.056928 
1400.320416  	0.056801 
1402.249232  	0.056973 
1404.178048  	0.058214 
1406.106864  	0.059272 
1408.035680  	0.060536 
1409.964496  	0.062625 
1411.893312  	0.065241 
1413.822128  	0.067945 
1415.750944  	0.071205 
1417.679760  	0.073945 
1419.608576  	0.075351 
1421.537392  	0.075005 
1423.466208  	0.074405 
1425.395024  	0.072119 
1427.323840  	0.069202 
1429.252656  	0.066230 
1431.181472  	0.063637 
1433.110288  	0.062433 
1435.039104  	0.062977 
1436.967920  	0.065001 
1438.896736  	0.066652 
1440.825552  	0.067843 
1442.754368  	0.068866 
1444.683184  	0.069196 
1446.612000  	0.069778 
1448.540816  	0.070071 
1450.469632  	0.070291 
1452.398448  	0.070792 
1454.327264  	0.071458 
1456.256080  	0.072472 
1458.184896  	0.072644 
1460.113712  	0.070684 
1462.042528  	0.069448 
1463.971344  	0.068972 
1465.900160  	0.069377 
1467.828976  	0.069955 
1469.757792  	0.071661 
1471.686608  	0.076018 
1473.615424  	0.084907 
1475.544240  	0.091010 
1477.473056  	0.097567 
1479.401872  	0.102164 
1481.330688  	0.107137 
1483.259504  	0.110700 
1485.188320  	0.113117 
1487.117136  	0.115051 
1489.045952  	0.116709 
1490.974768  	0.113866 
1492.903584  	0.109357 
1494.832400  	0.104281 
1496.761216  	0.097221 
1498.690032  	0.088797 
1500.618848  	0.081553 
1502.547664  	0.075284 
1504.476480  	0.070928 
1506.405296  	0.068332 
1508.334112  	0.065785 
1510.262928  	0.062107 
1512.191744  	0.059294 
1514.120560  	0.058440 
1516.049376  	0.059763 
1517.978192  	0.061471 
1519.907008  	0.063218 
1521.835824  	0.068648 
1523.764640  	0.072842 
1525.693456  	0.076806 
1527.622272  	0.079254 
1529.551088  	0.078538 
1531.479904  	0.076562 
1533.408720  	0.073187 
1535.337536  	0.068512 
1537.266352  	0.065203 
1539.195168  	0.061631 
1541.123984  	0.057666 
1543.052800  	0.056715 
1544.981616  	0.054908 
1546.910432  	0.052704 
1548.839248  	0.052406 
1550.768064  	0.053318 
1552.696880  	0.053045 
1554.625696  	0.054595 
1556.554512  	0.055426 
1558.483328  	0.058787 
1560.412144  	0.064315 
1562.340960  	0.066270 
1564.269776  	0.069490 
1566.198592  	0.075285 
1568.127408  	0.079756 
1570.056224  	0.088501 
1571.985040  	0.094624 
1573.913856  	0.098694 
1575.842672  	0.103156 
1577.771488  	0.107680 
1579.700304  	0.107006 
1581.629120  	0.106158 
1583.557936  	0.105558 
1585.486752  	0.107028 
1587.415568  	0.110252 
1589.344384  	0.116265 
1591.273200  	0.123844 
1593.202016  	0.133340 
1595.130832  	0.143310 
1597.059648  	0.153632 
1598.988464  	0.162144 
1600.917280  	0.170238 
1602.846096  	0.175955 
1604.774912  	0.179677 
1606.703728  	0.180357 
1608.632544  	0.179841 
1610.561360  	0.177182 
1612.490176  	0.174989 
1614.418992  	0.172295 
1616.347808  	0.172096 
1618.276624  	0.174135 
1620.205440  	0.176939 
1622.134256  	0.180573 
1624.063072  	0.189494 
1625.991888  	0.196493 
1627.920704  	0.205933 
1629.849520  	0.216142 
1631.778336  	0.224951 
1633.707152  	0.231459 
1635.635968  	0.242483 
1637.564784  	0.252970 
1639.493600  	0.257152 
1641.422416  	0.259963 
1643.351232  	0.262123 
1645.280048  	0.262026 
1647.208864  	0.264002 
1649.137680  	0.262428 
1651.066496  	0.259010 
1652.995312  	0.255353 
1654.924128  	0.255689 
1656.852944  	0.251229 
1658.781760  	0.247085 
1660.710576  	0.242664 
1662.639392  	0.237508 
1664.568208  	0.231039 
1666.497024  	0.225394 
1668.425840  	0.218884 
1670.354656  	0.211089 
1672.283472  	0.204419 
1674.212288  	0.198895 
1676.141104  	0.193336 
1678.069920  	0.189778 
1679.998736  	0.187378 
1681.927552  	0.184916 
1683.856368  	0.182330 
1685.785184  	0.181973 
1687.714000  	0.180376 
1689.642816  	0.179405 
1691.571632  	0.177667 
1693.500448  	0.175929 
1695.429264  	0.174283 
1697.358080  	0.174069 
1699.286896  	0.171900 
1701.215712  	0.170493 
1703.144528  	0.167927 
1705.073344  	0.164665 
1707.002160  	0.159634 
1708.930976  	0.154128 
1710.859792  	0.147403 
1712.788608  	0.139954 
1714.717424  	0.130849 
1716.646240  	0.119469 
1718.575056  	0.103307 
1720.503872  	0.091268 
1722.432688  	0.081105 
1724.361504  	0.069101 
1726.290320  	0.059054 
1728.219136  	0.051183 
1730.147952  	0.044632 
1732.076768  	0.038987 
1734.005584  	0.033553 
1735.934400  	0.027821 
1737.863216  	0.025540 
1739.792032  	0.022269 
1741.720848  	0.020271 
1743.649664  	0.018998 
1745.578480  	0.017526 
1747.507296  	0.016037 
1749.436112  	0.015455 
1751.364928  	0.013877 
1753.293744  	0.012324 
1755.222560  	0.011263 
1757.151376  	0.011337 
1759.080192  	0.010379 
1761.009008  	0.009849 
1762.937824  	0.008811 
1764.866640  	0.008189 
1766.795456  	0.008002 
1768.724272  	0.008206 
1770.653088  	0.007118 
1772.581904  	0.007144 
1774.510720  	0.006998 
1776.439536  	0.006540 
1778.368352  	0.005730 
1780.297168  	0.005870 
1782.225984  	0.005218 
1784.154800  	0.005004 
1786.083616  	0.004393 
1788.012432  	0.004250 
1789.941248  	0.004637 
1791.870064  	0.005125 
1793.798880  	0.004261 
1795.727696  	0.004136 
1797.656512  	0.003393 
1799.585328  	0.003174 
1801.514144  	0.003473 
1803.442960  	0.003320 
1805.371776  	0.002650 
1807.300592  	0.002559 
1809.229408  	0.002324 
1811.158224  	0.002376 
1813.087040  	0.001761 
1815.015856  	0.001393 
1816.944672  	0.001563 
1818.873488  	0.001949 
1820.802304  	0.001847 
1822.731120  	0.002075 
1824.659936  	0.001779 
1826.588752  	0.001786 
1828.517568  	0.001474 
1830.446384  	0.001664 
1832.375200  	0.001198 
1834.304016  	0.001212 
1836.232832  	0.001208 
1838.161648  	0.001516 
1840.090464  	0.001281 
1842.019280  	0.001379 
1843.948096  	0.001281 
1845.876912  	0.001491 
1847.805728  	0.001055 
1849.734544  	0.000854 
1851.663360  	0.000718 
1853.592176  	0.001030 
1855.520992  	0.000752 
1857.449808  	0.000667 
1859.378624  	0.000114 
1861.307440  	0.000349 
1863.236256  	0.000095 
1865.165072  	0.000274 
1867.093888  	0.000481 
1869.022704  	0.001283 
1870.951520  	0.000589 
1872.880336  	0.000234 
1874.809152  	-0.000326 
1876.737968  	-0.000393 
1878.666784  	-0.000610 
1880.595600  	-0.000495 
1882.524416  	-0.000289 
1884.453232  	0.000055 
1886.382048  	-0.000334 
1888.310864  	0.000113 
1890.239680  	0.000119 
1892.168496  	0.000142 
1894.097312  	0.000141 
1896.026128  	0.000148 
1897.954944  	-0.000004 
1899.883760  	0.000154 
1901.812576  	-0.000119 
1903.741392  	0.000042 
1905.670208  	-0.000601 
1907.599024  	-0.000864 
1909.527840  	-0.000804 
1911.456656  	0.000158 
1913.385472  	0.000432 
1915.314288  	0.000524 
1917.243104  	0.000234 
1919.171920  	0.000915 
1921.100736  	0.000661 
1923.029552  	0.000512 
1924.958368  	-0.000557 
1926.887184  	-0.000771 
1928.816000  	-0.001258 
1930.744816  	-0.000728 
1932.673632  	-0.000430 
1934.602448  	-0.000160 
1936.531264  	-0.000913 
1938.460080  	-0.000402 
1940.388896  	0.000490 
1942.317712  	0.001154 
1944.246528  	-0.000742 
1946.175344  	-0.000884 
1948.104160  	-0.000470 
1950.032976  	-0.000112 
1951.961792  	-0.000834 
1953.890608  	-0.000926 
1955.819424  	-0.001768 
1957.748240  	-0.001866 
1959.677056  	-0.002128 
1961.605872  	-0.001391 
1963.534688  	-0.001649 
1965.463504  	-0.001135 
1967.392320  	-0.001775 
1969.321136  	-0.001008 
1971.249952  	-0.001960 
1973.178768  	-0.002191 
1975.107584  	-0.001483 
1977.036400  	-0.000179 
1978.965216  	-0.000622 
1980.894032  	-0.000483 
1982.822848  	-0.001100 
1984.751664  	-0.000394 
1986.680480  	0.000113 
1988.609296  	0.000762 
1990.538112  	0.000612 
1992.466928  	0.001771 
1994.395744  	-0.000198 
1996.324560  	-0.000746 
1998.253376  	-0.000232 
2000.182192  	0.000006 
2002.111008  	-0.001086 
2004.039824  	-0.001373 
2005.968640  	-0.001823 
2007.897456  	-0.000571 
2009.826272  	0.000140 
2011.755088  	0.000571 
2013.683904  	-0.000238 
2015.612720  	0.000987 
2017.541536  	0.001860 
2019.470352  	0.001962 
2021.399168  	-0.000530 
2023.327984  	0.000258 
2025.256800  	0.001190 
2027.185616  	0.002619 
2029.114432  	0.002228 
2031.043248  	0.001781 
2032.972064  	0.000951 
2034.900880  	0.002021 
2036.829696  	0.002157 
2038.758512  	0.003001 
2040.687328  	0.002260 
2042.616144  	0.002394 
2044.544960  	0.001561 
2046.473776  	0.001413 
2048.402592  	0.002003 
2050.331408  	0.003230 
2052.260224  	0.002523 
2054.189040  	0.002082 
2056.117856  	0.001472 
2058.046672  	0.002304 
2059.975488  	0.002321 
2061.904304  	0.002750 
2063.833120  	0.002607 
2065.761936  	0.002911 
2067.690752  	0.002805 
2069.619568  	0.003008 
2071.548384  	0.002395 
2073.477200  	0.002991 
2075.406016  	0.003458 
2077.334832  	0.003967 
2079.263648  	0.004217 
2081.192464  	0.004440 
2083.121280  	0.003726 
2085.050096  	0.003610 
2086.978912  	0.003641 
2088.907728  	0.003957 
2090.836544  	0.003807 
2092.765360  	0.003490 
2094.694176  	0.003359 
2096.622992  	0.004328 
2098.551808  	0.004237 
2100.480624  	0.004291 
2102.409440  	0.004219 
2104.338256  	0.004614 
2106.267072  	0.004456 
2108.195888  	0.004563 
2110.124704  	0.004202 
2112.053520  	0.004578 
2113.982336  	0.004875 
2115.911152  	0.004661 
2117.839968  	0.004053 
2119.768784  	0.004088 
2121.697600  	0.004161 
2123.626416  	0.004052 
2125.555232  	0.003514 
2127.484048  	0.003655 
2129.412864  	0.004181 
2131.341680  	0.004702 
2133.270496  	0.004579 
2135.199312  	0.004854 
2137.128128  	0.005141 
2139.056944  	0.005114 
2140.985760  	0.004882 
2142.914576  	0.005468 
2144.843392  	0.004656 
2146.772208  	0.004692 
2148.701024  	0.004366 
2150.629840  	0.004586 
2152.558656  	0.004361 
2154.487472  	0.005058 
2156.416288  	0.005064 
2158.345104  	0.007804 
2160.273920  	0.010668 
2162.202736  	0.009578 
2164.131552  	0.007757 
2166.060368  	0.008437 
2167.989184  	0.007437 
2169.918000  	0.006170 
2171.846816  	0.006151 
2173.775632  	0.006659 
2175.704448  	0.006325 
2177.633264  	0.006115 
2179.562080  	0.005435 
2181.490896  	0.006535 
2183.419712  	0.006572 
2185.348528  	0.005815 
2187.277344  	0.005270 
2189.206160  	0.005843 
2191.134976  	0.005694 
2193.063792  	0.005751 
2194.992608  	0.005544 
2196.921424  	0.006027 
2198.850240  	0.005292 
2200.779056  	0.004987 
2202.707872  	0.004699 
2204.636688  	0.005400 
2206.565504  	0.005110 
2208.494320  	0.004570 
2210.423136  	0.004340 
2212.351952  	0.004797 
2214.280768  	0.004546 
2216.209584  	0.004516 
2218.138400  	0.003971 
2220.067216  	0.003496 
2221.996032  	0.002921 
2223.924848  	0.003439 
2225.853664  	0.003712 
2227.782480  	0.004115 
2229.711296  	0.003339 
2231.640112  	0.003201 
2233.568928  	0.002936 
2235.497744  	0.002927 
2237.426560  	0.002957 
2239.355376  	0.003227 
2241.284192  	0.003055 
2243.213008  	0.003160 
2245.141824  	0.002981 
2247.070640  	0.002670 
2248.999456  	0.002812 
2250.928272  	0.003492 
2252.857088  	0.003559 
2254.785904  	0.003731 
2256.714720  	0.003788 
2258.643536  	0.003929 
2260.572352  	0.003903 
2262.501168  	0.004106 
2264.429984  	0.004210 
2266.358800  	0.004374 
2268.287616  	0.004073 
2270.216432  	0.004054 
2272.145248  	0.004022 
2274.074064  	0.004256 
2276.002880  	0.004171 
2277.931696  	0.004244 
2279.860512  	0.004104 
2281.789328  	0.004116 
2283.718144  	0.004281 
2285.646960  	0.004799 
2287.575776  	0.004846 
2289.504592  	0.005012 
2291.433408  	0.005006 
2293.362224  	0.005204 
2295.291040  	0.005138 
2297.219856  	0.005350 
2299.148672  	0.005414 
2301.077488  	0.005663 
2303.006304  	0.006135 
2304.935120  	0.006554 
2306.863936  	0.006592 
2308.792752  	0.006798 
2310.721568  	0.007029 
2312.650384  	0.006862 
2314.579200  	0.006450 
2316.508016  	0.006905 
2318.436832  	0.007450 
2320.365648  	0.007784 
2322.294464  	0.007623 
2324.223280  	0.007082 
2326.152096  	0.005623 
2328.080912  	0.004644 
2330.009728  	0.004423 
2331.938544  	0.004185 
2333.867360  	0.003471 
2335.796176  	0.003018 
2337.724992  	0.002495 
2339.653808  	0.002562 
2341.582624  	0.003063 
2343.511440  	0.003803 
2345.440256  	0.004564 
2347.369072  	0.005424 
2349.297888  	0.005646 
2351.226704  	0.004977 
2353.155520  	0.003949 
2355.084336  	0.003557 
2357.013152  	0.003274 
2358.941968  	0.003221 
2360.870784  	0.003023 
2362.799600  	0.003051 
2364.728416  	0.003658 
2366.657232  	0.004171 
2368.586048  	0.004025 
2370.514864  	0.004876 
2372.443680  	0.005409 
2374.372496  	0.005867 
2376.301312  	0.006020 
2378.230128  	0.005939 
2380.158944  	0.005639 
2382.087760  	0.005296 
2384.016576  	0.004662 
2385.945392  	0.004166 
2387.874208  	0.003900 
2389.803024  	0.003527 
2391.731840  	0.003295 
2393.660656  	0.003468 
2395.589472  	0.003366 
2397.518288  	0.003297 
2399.447104  	0.003298 
2401.375920  	0.003396 
2403.304736  	0.003194 
2405.233552  	0.003135 
2407.162368  	0.003129 
2409.091184  	0.003256 
2411.020000  	0.003232 
2412.948816  	0.003183 
2414.877632  	0.003197 
2416.806448  	0.003449 
2418.735264  	0.003508 
2420.664080  	0.003626 
2422.592896  	0.003698 
2424.521712  	0.003757 
2426.450528  	0.003636 
2428.379344  	0.003478 
2430.308160  	0.003724 
2432.236976  	0.004110 
2434.165792  	0.004388 
2436.094608  	0.004594 
2438.023424  	0.004557 
2439.952240  	0.004483 
2441.881056  	0.004475 
2443.809872  	0.004420 
2445.738688  	0.004352 
2447.667504  	0.004727 
2449.596320  	0.005147 
2451.525136  	0.005247 
2453.453952  	0.005181 
2455.382768  	0.005153 
2457.311584  	0.005096 
2459.240400  	0.005000 
2461.169216  	0.004950 
2463.098032  	0.005248 
2465.026848  	0.005250 
2466.955664  	0.005157 
2468.884480  	0.005089 
2470.813296  	0.005043 
2472.742112  	0.005190 
2474.670928  	0.005584 
2476.599744  	0.005796 
2478.528560  	0.005971 
2480.457376  	0.005995 
2482.386192  	0.006182 
2484.315008  	0.006173 
2486.243824  	0.006268 
2488.172640  	0.006631 
2490.101456  	0.006894 
2492.030272  	0.006849 
2493.959088  	0.006979 
2495.887904  	0.006990 
2497.816720  	0.007156 
2499.745536  	0.007166 
2501.674352  	0.007000 
2503.603168  	0.006970 
2505.531984  	0.007115 
2507.460800  	0.007208 
2509.389616  	0.007199 
2511.318432  	0.007140 
2513.247248  	0.007322 
2515.176064  	0.007628 
2517.104880  	0.007881 
2519.033696  	0.007703 
2520.962512  	0.007802 
2522.891328  	0.008090 
2524.820144  	0.008368 
2526.748960  	0.008334 
2528.677776  	0.008300 
2530.606592  	0.008379 
2532.535408  	0.008685 
2534.464224  	0.008689 
2536.393040  	0.008658 
2538.321856  	0.008892 
2540.250672  	0.009108 
2542.179488  	0.009159 
2544.108304  	0.009226 
2546.037120  	0.009324 
2547.965936  	0.009565 
2549.894752  	0.009655 
2551.823568  	0.009948 
2553.752384  	0.010068 
2555.681200  	0.010056 
2557.610016  	0.010107 
2559.538832  	0.010356 
2561.467648  	0.010804 
2563.396464  	0.011042 
2565.325280  	0.010873 
2567.254096  	0.010886 
2569.182912  	0.010980 
2571.111728  	0.011246 
2573.040544  	0.011366 
2574.969360  	0.011647 
2576.898176  	0.011784 
2578.826992  	0.011841 
2580.755808  	0.011991 
2582.684624  	0.012254 
2584.613440  	0.012318 
2586.542256  	0.012506 
2588.471072  	0.012565 
2590.399888  	0.012565 
2592.328704  	0.012785 
2594.257520  	0.013225 
2596.186336  	0.013298 
2598.115152  	0.013256 
2600.043968  	0.013452 
2601.972784  	0.013696 
2603.901600  	0.013818 
2605.830416  	0.013819 
2607.759232  	0.013884 
2609.688048  	0.014135 
2611.616864  	0.014396 
2613.545680  	0.014592 
2615.474496  	0.014680 
2617.403312  	0.014983 
2619.332128  	0.015131 
2621.260944  	0.015214 
2623.189760  	0.015438 
2625.118576  	0.015648 
2627.047392  	0.015705 
2628.976208  	0.015998 
2630.905024  	0.016269 
2632.833840  	0.016402 
2634.762656  	0.016478 
2636.691472  	0.016703 
2638.620288  	0.016964 
2640.549104  	0.017313 
2642.477920  	0.017573 
2644.406736  	0.017601 
2646.335552  	0.017681 
2648.264368  	0.018116 
2650.193184  	0.018444 
2652.122000  	0.018628 
2654.050816  	0.018819 
2655.979632  	0.019071 
2657.908448  	0.019293 
2659.837264  	0.019491 
2661.766080  	0.019714 
2663.694896  	0.019884 
2665.623712  	0.020057 
2667.552528  	0.020339 
2669.481344  	0.020539 
2671.410160  	0.020702 
2673.338976  	0.020963 
2675.267792  	0.021285 
2677.196608  	0.021567 
2679.125424  	0.021744 
2681.054240  	0.021876 
2682.983056  	0.022119 
2684.911872  	0.022313 
2686.840688  	0.022546 
2688.769504  	0.022706 
2690.698320  	0.022809 
2692.627136  	0.022971 
2694.555952  	0.023169 
2696.484768  	0.023315 
2698.413584  	0.023452 
2700.342400  	0.023642 
2702.271216  	0.023951 
2704.200032  	0.024153 
2706.128848  	0.024426 
2708.057664  	0.024609 
2709.986480  	0.024726 
2711.915296  	0.024982 
2713.844112  	0.025266 
2715.772928  	0.025462 
2717.701744  	0.025570 
2719.630560  	0.025853 
2721.559376  	0.026190 
2723.488192  	0.026458 
2725.417008  	0.026741 
2727.345824  	0.026953 
2729.274640  	0.027308 
2731.203456  	0.027499 
2733.132272  	0.027661 
2735.061088  	0.027880 
2736.989904  	0.028080 
2738.918720  	0.028335 
2740.847536  	0.028530 
2742.776352  	0.028706 
2744.705168  	0.028920 
2746.633984  	0.028988 
2748.562800  	0.029214 
2750.491616  	0.029304 
2752.420432  	0.029301 
2754.349248  	0.029384 
2756.278064  	0.029453 
2758.206880  	0.029377 
2760.135696  	0.029359 
2762.064512  	0.029424 
2763.993328  	0.029444 
2765.922144  	0.029440 
2767.850960  	0.029529 
2769.779776  	0.029488 
2771.708592  	0.029511 
2773.637408  	0.029473 
2775.566224  	0.029362 
2777.495040  	0.029373 
2779.423856  	0.029490 
2781.352672  	0.029489 
2783.281488  	0.029494 
2785.210304  	0.029486 
2787.139120  	0.029514 
2789.067936  	0.029499 
2790.996752  	0.029463 
2792.925568  	0.029534 
2794.854384  	0.029554 
2796.783200  	0.029461 
2798.712016  	0.029315 
2800.640832  	0.029294 
2802.569648  	0.029414 
2804.498464  	0.029513 
2806.427280  	0.029657 
2808.356096  	0.029793 
2810.284912  	0.029674 
2812.213728  	0.029637 
2814.142544  	0.029824 
2816.071360  	0.029747 
2818.000176  	0.029750 
2819.928992  	0.029922 
2821.857808  	0.030003 
2823.786624  	0.029873 
2825.715440  	0.029922 
2827.644256  	0.030028 
2829.573072  	0.029964 
2831.501888  	0.029983 
2833.430704  	0.029968 
2835.359520  	0.029799 
2837.288336  	0.029770 
2839.217152  	0.029804 
2841.145968  	0.029749 
2843.074784  	0.029697 
2845.003600  	0.029769 
2846.932416  	0.029784 
2848.861232  	0.029938 
2850.790048  	0.030016 
2852.718864  	0.030211 
2854.647680  	0.030486 
2856.576496  	0.030716 
2858.505312  	0.030817 
2860.434128  	0.031073 
2862.362944  	0.031281 
2864.291760  	0.031427 
2866.220576  	0.031586 
2868.149392  	0.031786 
2870.078208  	0.032083 
2872.007024  	0.032523 
2873.935840  	0.033069 
2875.864656  	0.033617 
2877.793472  	0.034067 
2879.722288  	0.034805 
2881.651104  	0.035605 
2883.579920  	0.036187 
2885.508736  	0.036716 
2887.437552  	0.037138 
2889.366368  	0.037407 
2891.295184  	0.037538 
2893.224000  	0.037676 
2895.152816  	0.037762 
2897.081632  	0.037779 
2899.010448  	0.037607 
2900.939264  	0.037429 
2902.868080  	0.037697 
2904.796896  	0.038103 
2906.725712  	0.038398 
2908.654528  	0.038818 
2910.583344  	0.039242 
2912.512160  	0.039651 
2914.440976  	0.040357 
2916.369792  	0.041283 
2918.298608  	0.041947 
2920.227424  	0.042494 
2922.156240  	0.043246 
2924.085056  	0.044060 
2926.013872  	0.044873 
2927.942688  	0.045957 
2929.871504  	0.047037 
2931.800320  	0.047953 
2933.729136  	0.048970 
2935.657952  	0.050011 
2937.586768  	0.050938 
2939.515584  	0.051693 
2941.444400  	0.052361 
2943.373216  	0.052995 
2945.302032  	0.053582 
2947.230848  	0.053941 
2949.159664  	0.054010 
2951.088480  	0.053960 
2953.017296  	0.054043 
2954.946112  	0.053963 
2956.874928  	0.053778 
2958.803744  	0.053604 
2960.732560  	0.053440 
2962.661376  	0.053154 
2964.590192  	0.052896 
2966.519008  	0.052702 
2968.447824  	0.052387 
2970.376640  	0.052099 
2972.305456  	0.051858 
2974.234272  	0.052005 
2976.163088  	0.052110 
2978.091904  	0.051917 
2980.020720  	0.051761 
2981.949536  	0.051746 
2983.878352  	0.051709 
2985.807168  	0.051625 
2987.735984  	0.051805 
2989.664800  	0.052063 
2991.593616  	0.052398 
2993.522432  	0.052622 
2995.451248  	0.052958 
2997.380064  	0.053515 
2999.308880  	0.054156 
3001.237696  	0.054722 
3003.166512  	0.055341 
3005.095328  	0.055917 
3007.024144  	0.056428 
3008.952960  	0.057179 
3010.881776  	0.058051 
3012.810592  	0.058917 
3014.739408  	0.059724 
3016.668224  	0.060415 
3018.597040  	0.061097 
3020.525856  	0.061811 
3022.454672  	0.062507 
3024.383488  	0.063284 
3026.312304  	0.064087 
3028.241120  	0.064737 
3030.169936  	0.065591 
3032.098752  	0.066667 
3034.027568  	0.067388 
3035.956384  	0.068129 
3037.885200  	0.068985 
3039.814016  	0.069785 
3041.742832  	0.070634 
3043.671648  	0.071685 
3045.600464  	0.072569 
3047.529280  	0.073242 
3049.458096  	0.074225 
3051.386912  	0.075257 
3053.315728  	0.076171 
3055.244544  	0.076969 
3057.173360  	0.078061 
3059.102176  	0.079315 
3061.030992  	0.080529 
3062.959808  	0.081738 
3064.888624  	0.083021 
3066.817440  	0.084320 
3068.746256  	0.085631 
3070.675072  	0.086822 
3072.603888  	0.087937 
3074.532704  	0.089161 
3076.461520  	0.090479 
3078.390336  	0.091665 
3080.319152  	0.092965 
3082.247968  	0.094212 
3084.176784  	0.095281 
3086.105600  	0.096607 
3088.034416  	0.097866 
3089.963232  	0.098805 
3091.892048  	0.099992 
3093.820864  	0.101259 
3095.749680  	0.102590 
3097.678496  	0.103994 
3099.607312  	0.105142 
3101.536128  	0.106557 
3103.464944  	0.107880 
3105.393760  	0.109009 
3107.322576  	0.110150 
3109.251392  	0.111332 
3111.180208  	0.112390 
3113.109024  	0.113319 
3115.037840  	0.114286 
3116.966656  	0.115378 
3118.895472  	0.116511 
3120.824288  	0.117452 
3122.753104  	0.118289 
3124.681920  	0.119022 
3126.610736  	0.119809 
3128.539552  	0.120614 
3130.468368  	0.121263 
3132.397184  	0.122265 
3134.326000  	0.123369 
3136.254816  	0.124151 
3138.183632  	0.124857 
3140.112448  	0.125466 
3142.041264  	0.126432 
3143.970080  	0.127562 
3145.898896  	0.128378 
3147.827712  	0.129151 
3149.756528  	0.130280 
3151.685344  	0.131219 
3153.614160  	0.131920 
3155.542976  	0.132801 
3157.471792  	0.133772 
3159.400608  	0.134607 
3161.329424  	0.135351 
3163.258240  	0.136131 
3165.187056  	0.136687 
3167.115872  	0.137283 
3169.044688  	0.138094 
3170.973504  	0.138675 
3172.902320  	0.139038 
3174.831136  	0.139546 
3176.759952  	0.140139 
3178.688768  	0.140736 
3180.617584  	0.140982 
3182.546400  	0.141155 
3184.475216  	0.141340 
3186.404032  	0.141761 
3188.332848  	0.142163 
3190.261664  	0.142285 
3192.190480  	0.142361 
3194.119296  	0.142348 
3196.048112  	0.141954 
3197.976928  	0.141915 
3199.905744  	0.142035 
3201.834560  	0.141866 
3203.763376  	0.141449 
3205.692192  	0.141101 
3207.621008  	0.141037 
3209.549824  	0.140946 
3211.478640  	0.140920 
3213.407456  	0.140911 
3215.336272  	0.140752 
3217.265088  	0.140532 
3219.193904  	0.140399 
3221.122720  	0.140384 
3223.051536  	0.140090 
3224.980352  	0.139630 
3226.909168  	0.139274 
3228.837984  	0.139032 
3230.766800  	0.138868 
3232.695616  	0.139012 
3234.624432  	0.139173 
3236.553248  	0.139196 
3238.482064  	0.139193 
3240.410880  	0.139132 
3242.339696  	0.139171 
3244.268512  	0.139178 
3246.197328  	0.139331 
3248.126144  	0.139584 
3250.054960  	0.140010 
3251.983776  	0.140201 
3253.912592  	0.140555 
3255.841408  	0.141004 
3257.770224  	0.141010 
3259.699040  	0.141074 
3261.627856  	0.141472 
3263.556672  	0.141625 
3265.485488  	0.141798 
3267.414304  	0.142081 
3269.343120  	0.142352 
3271.271936  	0.142495 
3273.200752  	0.142707 
3275.129568  	0.142968 
3277.058384  	0.143155 
3278.987200  	0.143335 
3280.916016  	0.143446 
3282.844832  	0.143497 
3284.773648  	0.143666 
3286.702464  	0.143852 
3288.631280  	0.144179 
3290.560096  	0.144407 
3292.488912  	0.144593 
3294.417728  	0.144855 
3296.346544  	0.145107 
3298.275360  	0.145417 
3300.204176  	0.145628 
3302.132992  	0.145744 
3304.061808  	0.146186 
3305.990624  	0.146761 
3307.919440  	0.147202 
3309.848256  	0.147468 
3311.777072  	0.147701 
3313.705888  	0.147964 
3315.634704  	0.148344 
3317.563520  	0.148501 
3319.492336  	0.148719 
3321.421152  	0.148932 
3323.349968  	0.149072 
3325.278784  	0.149188 
3327.207600  	0.149367 
3329.136416  	0.149279 
3331.065232  	0.149144 
3332.994048  	0.148983 
3334.922864  	0.148953 
3336.851680  	0.148990 
3338.780496  	0.148939 
3340.709312  	0.148561 
3342.638128  	0.148415 
3344.566944  	0.148006 
3346.495760  	0.147498 
3348.424576  	0.147146 
3350.353392  	0.146802 
3352.282208  	0.146290 
3354.211024  	0.145745 
3356.139840  	0.145249 
3358.068656  	0.144892 
3359.997472  	0.144473 
3361.926288  	0.143768 
3363.855104  	0.143099 
3365.783920  	0.142779 
3367.712736  	0.142429 
3369.641552  	0.141869 
3371.570368  	0.141321 
3373.499184  	0.140817 
3375.428000  	0.140418 
3377.356816  	0.140063 
3379.285632  	0.139780 
3381.214448  	0.139269 
3383.143264  	0.138628 
3385.072080  	0.138221 
3387.000896  	0.137453 
3388.929712  	0.136698 
3390.858528  	0.136166 
3392.787344  	0.135970 
3394.716160  	0.135361 
3396.644976  	0.134791 
3398.573792  	0.134170 
3400.502608  	0.133232 
3402.431424  	0.132408 
3404.360240  	0.131669 
3406.289056  	0.130924 
3408.217872  	0.130230 
3410.146688  	0.129427 
3412.075504  	0.128569 
3414.004320  	0.128024 
3415.933136  	0.127506 
3417.861952  	0.126526 
3419.790768  	0.125879 
3421.719584  	0.125252 
3423.648400  	0.124323 
3425.577216  	0.123381 
3427.506032  	0.122592 
3429.434848  	0.121734 
3431.363664  	0.120966 
3433.292480  	0.120205 
3435.221296  	0.119332 
3437.150112  	0.118226 
3439.078928  	0.117122 
3441.007744  	0.116154 
3442.936560  	0.115471 
3444.865376  	0.114177 
3446.794192  	0.113662 
3448.723008  	0.113030 
3450.651824  	0.111555 
3452.580640  	0.110443 
3454.509456  	0.109470 
3456.438272  	0.108528 
3458.367088  	0.107515 
3460.295904  	0.106560 
3462.224720  	0.105784 
3464.153536  	0.104348 
3466.082352  	0.102970 
3468.011168  	0.102073 
3469.939984  	0.101054 
3471.868800  	0.099806 
3473.797616  	0.098542 
3475.726432  	0.097562 
3477.655248  	0.096363 
3479.584064  	0.094941 
3481.512880  	0.094042 
3483.441696  	0.092946 
3485.370512  	0.091605 
3487.299328  	0.090374 
3489.228144  	0.088935 
3491.156960  	0.087558 
3493.085776  	0.086680 
3495.014592  	0.085852 
3496.943408  	0.084887 
3498.872224  	0.083493 
3500.801040  	0.082595 
3502.729856  	0.082022 
3504.658672  	0.081154 
3506.587488  	0.079530 
3508.516304  	0.078370 
3510.445120  	0.077598 
3512.373936  	0.076476 
3514.302752  	0.075392 
3516.231568  	0.074498 
3518.160384  	0.073473 
3520.089200  	0.072251 
3522.018016  	0.071291 
3523.946832  	0.070960 
3525.875648  	0.069862 
3527.804464  	0.068718 
3529.733280  	0.067922 
3531.662096  	0.066730 
3533.590912  	0.065336 
3535.519728  	0.064461 
3537.448544  	0.063635 
3539.377360  	0.062205 
3541.306176  	0.060909 
3543.234992  	0.060288 
3545.163808  	0.060373 
3547.092624  	0.059708 
3549.021440  	0.057716 
3550.950256  	0.056261 
3552.879072  	0.055778 
3554.807888  	0.054495 
3556.736704  	0.053077 
3558.665520  	0.052299 
3560.594336  	0.051643 
3562.523152  	0.050521 
3564.451968  	0.049620 
3566.380784  	0.050380 
3568.309600  	0.050238 
3570.238416  	0.047407 
3572.167232  	0.045336 
3574.096048  	0.044171 
3576.024864  	0.043233 
3577.953680  	0.042341 
3579.882496  	0.041211 
3581.811312  	0.039922 
3583.740128  	0.038747 
3585.668944  	0.038250 
3587.597760  	0.038950 
3589.526576  	0.037671 
3591.455392  	0.035154 
3593.384208  	0.034121 
3595.313024  	0.033635 
3597.241840  	0.032304 
3599.170656  	0.030551 
3601.099472  	0.029754 
3603.028288  	0.028422 
3604.957104  	0.026848 
3606.885920  	0.026454 
3608.814736  	0.026276 
3610.743552  	0.024716 
3612.672368  	0.023690 
3614.601184  	0.022826 
3616.530000  	0.020914 
3618.458816  	0.020018 
3620.387632  	0.019493 
3622.316448  	0.017785 
3624.245264  	0.016114 
3626.174080  	0.014779 
3628.102896  	0.014299 
3630.031712  	0.015165 
3631.960528  	0.013028 
3633.889344  	0.011493 
3635.818160  	0.010301 
3637.746976  	0.008812 
3639.675792  	0.007863 
3641.604608  	0.006894 
3643.533424  	0.005761 
3645.462240  	0.004418 
3647.391056  	0.004497 
3649.319872  	0.004732 
3651.248688  	0.004298 
3653.177504  	0.001880 
3655.106320  	0.000012 
3657.035136  	-0.000110 
3658.963952  	-0.001080 
3660.892768  	-0.002246 
3662.821584  	-0.003256 
3664.750400  	-0.003890 
3666.679216  	-0.004301 
3668.608032  	-0.004939 
3670.536848  	-0.004554 
3672.465664  	-0.005524 
3674.394480  	-0.006929 
3676.323296  	-0.005145 
3678.252112  	-0.005619 
3680.180928  	-0.006704 
3682.109744  	-0.007441 
3684.038560  	-0.007972 
3685.967376  	-0.008794 
3687.896192  	-0.008631 
3689.825008  	-0.007363 
3691.753824  	-0.007711 
3693.682640  	-0.008540 
3695.611456  	-0.009158 
3697.540272  	-0.009166 
3699.469088  	-0.009733 
3701.397904  	-0.009577 
3703.326720  	-0.009118 
3705.255536  	-0.009364 
3707.184352  	-0.009625 
3709.113168  	-0.009664 
3711.041984  	-0.008943 
3712.970800  	-0.008360 
3714.899616  	-0.009257 
3716.828432  	-0.010071 
3718.757248  	-0.009838 
3720.686064  	-0.009848 
3722.614880  	-0.009664 
3724.543696  	-0.009388 
3726.472512  	-0.009040 
3728.401328  	-0.009486 
3730.330144  	-0.010976 
3732.258960  	-0.011147 
3734.187776  	-0.009417 
3736.116592  	-0.007649 
3738.045408  	-0.008545 
3739.974224  	-0.009230 
3741.903040  	-0.009912 
3743.831856  	-0.010489 
3745.760672  	-0.009053 
3747.689488  	-0.010319 
3749.618304  	-0.010519 
3751.547120  	-0.008868 
3753.475936  	-0.008794 
3755.404752  	-0.009694 
3757.333568  	-0.010063 
3759.262384  	-0.009747 
3761.191200  	-0.009488 
3763.120016  	-0.010156 
3765.048832  	-0.010089 
3766.977648  	-0.009768 
3768.906464  	-0.010200 
3770.835280  	-0.009896 
3772.764096  	-0.010052 
3774.692912  	-0.010415 
3776.621728  	-0.010696 
3778.550544  	-0.010651 
3780.479360  	-0.009905 
3782.408176  	-0.010240 
3784.336992  	-0.010422 
3786.265808  	-0.010249 
3788.194624  	-0.010508 
3790.123440  	-0.010481 
3792.052256  	-0.010586 
3793.981072  	-0.011077 
3795.909888  	-0.010740 
3797.838704  	-0.010066 
3799.767520  	-0.010856 
3801.696336  	-0.009915 
3803.625152  	-0.009812 
3805.553968  	-0.011121 
3807.482784  	-0.010330 
3809.411600  	-0.010012 
3811.340416  	-0.010497 
3813.269232  	-0.011067 
3815.198048  	-0.011014 
3817.126864  	-0.009672 
3819.055680  	-0.010550 
3820.984496  	-0.010195 
3822.913312  	-0.009351 
3824.842128  	-0.010375 
3826.770944  	-0.010378 
3828.699760  	-0.010375 
3830.628576  	-0.010621 
3832.557392  	-0.010483 
3834.486208  	-0.010835 
3836.415024  	-0.010985 
3838.343840  	-0.010140 
3840.272656  	-0.009224 
3842.201472  	-0.009404 
3844.130288  	-0.009538 
3846.059104  	-0.010006 
3847.987920  	-0.010538 
3849.916736  	-0.010881 
3851.845552  	-0.011098 
3853.774368  	-0.008609 
3855.703184  	-0.008074 
3857.632000  	-0.008997 
3859.560816  	-0.009938 
3861.489632  	-0.010202 
3863.418448  	-0.009856 
3865.347264  	-0.009076 
3867.276080  	-0.009919 
3869.204896  	-0.009863 
3871.133712  	-0.008424 
3873.062528  	-0.009518 
3874.991344  	-0.009488 
3876.920160  	-0.010334 
3878.848976  	-0.010699 
3880.777792  	-0.009228 
3882.706608  	-0.009057 
3884.635424  	-0.009744 
3886.564240  	-0.009287 
3888.493056  	-0.010444 
3890.421872  	-0.010678 
3892.350688  	-0.009513 
3894.279504  	-0.009730 
3896.208320  	-0.010526 
3898.137136  	-0.010582 
3900.065952  	-0.009452 
3901.994768  	-0.008887 
3903.923584  	-0.008490 
3905.852400  	-0.008541 
3907.781216  	-0.009866 
3909.710032  	-0.010747 
3911.638848  	-0.011059 
3913.567664  	-0.011020 
3915.496480  	-0.010434 
3917.425296  	-0.009381 
3919.354112  	-0.009603 
3921.282928  	-0.009904 
3923.211744  	-0.009675 
3925.140560  	-0.009216 
3927.069376  	-0.009922 
3928.998192  	-0.010108 
3930.927008  	-0.009528 
3932.855824  	-0.009170 
3934.784640  	-0.009799 
3936.713456  	-0.010269 
3938.642272  	-0.010440 
3940.571088  	-0.010520 
3942.499904  	-0.009603 
3944.428720  	-0.009496 
3946.357536  	-0.010196 
3948.286352  	-0.009743 
3950.215168  	-0.009804 
3952.143984  	-0.010413 
3954.072800  	-0.010771 
3956.001616  	-0.010619 
3957.930432  	-0.010271 
3959.859248  	-0.010063 
3961.788064  	-0.009923 
3963.716880  	-0.010151 
3965.645696  	-0.010609 
3967.574512  	-0.010653 
3969.503328  	-0.010547 
3971.432144  	-0.010576 
3973.360960  	-0.010297 
3975.289776  	-0.009873 
3977.218592  	-0.009956 
3979.147408  	-0.010286 
3981.076224  	-0.010340 
3983.005040  	-0.010387 
3984.933856  	-0.010304 
3986.862672  	-0.010135 
3988.791488  	-0.010224 
3990.720304  	-0.010110 
3992.649120  	-0.010212 
3994.577936  	-0.010439 
3996.506752  	-0.010499 
3998.435568  	-0.010522 
4000.364384  	-0.010368 