##TITLE=No Description
##DATA TYPE=INFRARED SPECTRUM
##XUNITS=1/CM
##YUNITS=Abs
399.264912  	0.575225 
401.193728  	0.585178 
403.122544  	0.602726 
405.051360  	0.597337 
406.980176  	0.600676 
408.908992  	0.597091 
410.837808  	0.603236 
412.766624  	0.602723 
414.695440  	0.607894 
416.624256  	0.611412 
418.553072  	0.610553 
420.481888  	0.596476 
422.410704  	0.590323 
424.339520  	0.584614 
426.268336  	0.575448 
428.197152  	0.574352 
430.125968  	0.583536 
432.054784  	0.572173 
433.983600  	0.568897 
435.912416  	0.568148 
437.841232  	0.557748 
439.770048  	0.548446 
441.698864  	0.558556 
443.627680  	0.559242 
445.556496  	0.560719 
447.485312  	0.553812 
449.414128  	0.551686 
451.342944  	0.552839 
453.271760  	0.555963 
455.200576  	0.553779 
457.129392  	0.559504 
459.058208  	0.558754 
460.987024  	0.556882 
462.915840  	0.553617 
464.844656  	0.550283 
466.773472  	0.545293 
468.702288  	0.551073 
470.631104  	0.557312 
472.559920  	0.562119 
474.488736  	0.552732 
476.417552  	0.552111 
478.346368  	0.553159 
480.275184  	0.552028 
482.204000  	0.545995 
484.132816  	0.546425 
486.061632  	0.547817 
487.990448  	0.545806 
489.919264  	0.541387 
491.848080  	0.544023 
493.776896  	0.542087 
495.705712  	0.540885 
497.634528  	0.537810 
499.563344  	0.537146 
501.492160  	0.536287 
503.420976  	0.532701 
505.349792  	0.530639 
507.278608  	0.534683 
509.207424  	0.535286 
511.136240  	0.537157 
513.065056  	0.536795 
514.993872  	0.543693 
516.922688  	0.549500 
518.851504  	0.548422 
520.780320  	0.544099 
522.709136  	0.544431 
524.637952  	0.542786 
526.566768  	0.539474 
528.495584  	0.537933 
530.424400  	0.536108 
532.353216  	0.529110 
534.282032  	0.522937 
536.210848  	0.516753 
538.139664  	0.512248 
540.068480  	0.506724 
541.997296  	0.501781 
543.926112  	0.497647 
545.854928  	0.495847 
547.783744  	0.493067 
549.712560  	0.490074 
551.641376  	0.485847 
553.570192  	0.483545 
555.499008  	0.480498 
557.427824  	0.476827 
559.356640  	0.472435 
561.285456  	0.469048 
563.214272  	0.465622 
565.143088  	0.462599 
567.071904  	0.458291 
569.000720  	0.455313 
570.929536  	0.452336 
572.858352  	0.449450 
574.787168  	0.446317 
576.715984  	0.444014 
578.644800  	0.439169 
580.573616  	0.434863 
582.502432  	0.428681 
584.431248  	0.423912 
586.360064  	0.419678 
588.288880  	0.416828 
590.217696  	0.415179 
592.146512  	0.413933 
594.075328  	0.411340 
596.004144  	0.409893 
597.932960  	0.408347 
599.861776  	0.407390 
601.790592  	0.405567 
603.719408  	0.404180 
605.648224  	0.402421 
607.577040  	0.400716 
609.505856  	0.398410 
611.434672  	0.397465 
613.363488  	0.396607 
615.292304  	0.396095 
617.221120  	0.394148 
619.149936  	0.392060 
621.078752  	0.390595 
623.007568  	0.390021 
624.936384  	0.388800 
626.865200  	0.387512 
628.794016  	0.386517 
630.722832  	0.386240 
632.651648  	0.386645 
634.580464  	0.387570 
636.509280  	0.388088 
638.438096  	0.388207 
640.366912  	0.386859 
642.295728  	0.384916 
644.224544  	0.382178 
646.153360  	0.378636 
648.082176  	0.374514 
650.010992  	0.370825 
651.939808  	0.366661 
653.868624  	0.363434 
655.797440  	0.359410 
657.726256  	0.354766 
659.655072  	0.350372 
661.583888  	0.345745 
663.512704  	0.341013 
665.441520  	0.336712 
667.370336  	0.332252 
669.299152  	0.326882 
671.227968  	0.321902 
673.156784  	0.318038 
675.085600  	0.314689 
677.014416  	0.311350 
678.943232  	0.308901 
680.872048  	0.307292 
682.800864  	0.305761 
684.729680  	0.304431 
686.658496  	0.303252 
688.587312  	0.302255 
690.516128  	0.300526 
692.444944  	0.299249 
694.373760  	0.298207 
696.302576  	0.296842 
698.231392  	0.294870 
700.160208  	0.292134 
702.089024  	0.289463 
704.017840  	0.287264 
705.946656  	0.284638 
707.875472  	0.282041 
709.804288  	0.279396 
711.733104  	0.277569 
713.661920  	0.275974 
715.590736  	0.274782 
717.519552  	0.274347 
719.448368  	0.275036 
721.377184  	0.275913 
723.306000  	0.276373 
725.234816  	0.276687 
727.163632  	0.275377 
729.092448  	0.272264 
731.021264  	0.268156 
732.950080  	0.264171 
734.878896  	0.260531 
736.807712  	0.256896 
738.736528  	0.254155 
740.665344  	0.252242 
742.594160  	0.250635 
744.522976  	0.249144 
746.451792  	0.247751 
748.380608  	0.245708 
750.309424  	0.244335 
752.238240  	0.243580 
754.167056  	0.242962 
756.095872  	0.241914 
758.024688  	0.240667 
759.953504  	0.240317 
761.882320  	0.241723 
763.811136  	0.242739 
765.739952  	0.240921 
767.668768  	0.237164 
769.597584  	0.233788 
771.526400  	0.233110 
773.455216  	0.235323 
775.384032  	0.239928 
777.312848  	0.246266 
779.241664  	0.250653 
781.170480  	0.249615 
783.099296  	0.243809 
785.028112  	0.236354 
786.956928  	0.229793 
788.885744  	0.224397 
790.814560  	0.220325 
792.743376  	0.218232 
794.672192  	0.217560 
796.601008  	0.216446 
798.529824  	0.212730 
800.458640  	0.207702 
802.387456  	0.203859 
804.316272  	0.201850 
806.245088  	0.200412 
808.173904  	0.199568 
810.102720  	0.199304 
812.031536  	0.199058 
813.960352  	0.199324 
815.889168  	0.200113 
817.817984  	0.201199 
819.746800  	0.202655 
821.675616  	0.203954 
823.604432  	0.204720 
825.533248  	0.205545 
827.462064  	0.206509 
829.390880  	0.206613 
831.319696  	0.205855 
833.248512  	0.204610 
835.177328  	0.202622 
837.106144  	0.199276 
839.034960  	0.195254 
840.963776  	0.190433 
842.892592  	0.185591 
844.821408  	0.181140 
846.750224  	0.176921 
848.679040  	0.173298 
850.607856  	0.170536 
852.536672  	0.168797 
854.465488  	0.167501 
856.394304  	0.166496 
858.323120  	0.164959 
860.251936  	0.163169 
862.180752  	0.161471 
864.109568  	0.159297 
866.038384  	0.156951 
867.967200  	0.154536 
869.896016  	0.152327 
871.824832  	0.151500 
873.753648  	0.151991 
875.682464  	0.152856 
877.611280  	0.154592 
879.540096  	0.157389 
881.468912  	0.160733 
883.397728  	0.164163 
885.326544  	0.166760 
887.255360  	0.168277 
889.184176  	0.168569 
891.112992  	0.167885 
893.041808  	0.166329 
894.970624  	0.163565 
896.899440  	0.158877 
898.828256  	0.152899 
900.757072  	0.146922 
902.685888  	0.142027 
904.614704  	0.139090 
906.543520  	0.138533 
908.472336  	0.139888 
910.401152  	0.142785 
912.329968  	0.146296 
914.258784  	0.149719 
916.187600  	0.153148 
918.116416  	0.156284 
920.045232  	0.158581 
921.974048  	0.160100 
923.902864  	0.161566 
925.831680  	0.163072 
927.760496  	0.164661 
929.689312  	0.166363 
931.618128  	0.168540 
933.546944  	0.170244 
935.475760  	0.170949 
937.404576  	0.170912 
939.333392  	0.170330 
941.262208  	0.170061 
943.191024  	0.171096 
945.119840  	0.174604 
947.048656  	0.181304 
948.977472  	0.191475 
950.906288  	0.204671 
952.835104  	0.220815 
954.763920  	0.239061 
956.692736  	0.257846 
958.621552  	0.275100 
960.550368  	0.287948 
962.479184  	0.295873 
964.408000  	0.297097 
966.336816  	0.291818 
968.265632  	0.280343 
970.194448  	0.264454 
972.123264  	0.245716 
974.052080  	0.225988 
975.980896  	0.206705 
977.909712  	0.188874 
979.838528  	0.173242 
981.767344  	0.160361 
983.696160  	0.150753 
985.624976  	0.144919 
987.553792  	0.143213 
989.482608  	0.145225 
991.411424  	0.150757 
993.340240  	0.159168 
995.269056  	0.168907 
997.197872  	0.179356 
999.126688  	0.189956 
1001.055504  	0.200706 
1002.984320  	0.211082 
1004.913136  	0.221321 
1006.841952  	0.231248 
1008.770768  	0.240544 
1010.699584  	0.248398 
1012.628400  	0.254666 
1014.557216  	0.259091 
1016.486032  	0.261625 
1018.414848  	0.262670 
1020.343664  	0.263351 
1022.272480  	0.263845 
1024.201296  	0.264020 
1026.130112  	0.264151 
1028.058928  	0.265628 
1029.987744  	0.268761 
1031.916560  	0.273220 
1033.845376  	0.279017 
1035.774192  	0.286790 
1037.703008  	0.296588 
1039.631824  	0.310474 
1041.560640  	0.328838 
1043.489456  	0.351666 
1045.418272  	0.376705 
1047.347088  	0.400599 
1049.275904  	0.417520 
1051.204720  	0.425814 
1053.133536  	0.425846 
1055.062352  	0.421164 
1056.991168  	0.414144 
1058.919984  	0.408873 
1060.848800  	0.404816 
1062.777616  	0.401533 
1064.706432  	0.397046 
1066.635248  	0.391707 
1068.564064  	0.384185 
1070.492880  	0.374848 
1072.421696  	0.365704 
1074.350512  	0.360133 
1076.279328  	0.359363 
1078.208144  	0.363777 
1080.136960  	0.369776 
1082.065776  	0.373294 
1083.994592  	0.370475 
1085.923408  	0.361540 
1087.852224  	0.347606 
1089.781040  	0.331831 
1091.709856  	0.313969 
1093.638672  	0.295158 
1095.567488  	0.275459 
1097.496304  	0.256478 
1099.425120  	0.238268 
1101.353936  	0.220962 
1103.282752  	0.204903 
1105.211568  	0.190468 
1107.140384  	0.177058 
1109.069200  	0.165052 
1110.998016  	0.154482 
1112.926832  	0.144934 
1114.855648  	0.136240 
1116.784464  	0.127958 
1118.713280  	0.119768 
1120.642096  	0.111892 
1122.570912  	0.104503 
1124.499728  	0.097790 
1126.428544  	0.092055 
1128.357360  	0.086918 
1130.286176  	0.082674 
1132.214992  	0.079170 
1134.143808  	0.076525 
1136.072624  	0.074399 
1138.001440  	0.072631 
1139.930256  	0.070991 
1141.859072  	0.069431 
1143.787888  	0.067571 
1145.716704  	0.066148 
1147.645520  	0.065105 
1149.574336  	0.064675 
1151.503152  	0.064364 
1153.431968  	0.064522 
1155.360784  	0.064866 
1157.289600  	0.066067 
1159.218416  	0.067594 
1161.147232  	0.069459 
1163.076048  	0.071569 
1165.004864  	0.073695 
1166.933680  	0.075689 
1168.862496  	0.078120 
1170.791312  	0.080908 
1172.720128  	0.084206 
1174.648944  	0.087810 
1176.577760  	0.091440 
1178.506576  	0.095164 
1180.435392  	0.099440 
1182.364208  	0.103685 
1184.293024  	0.108375 
1186.221840  	0.113701 
1188.150656  	0.119875 
1190.079472  	0.127008 
1192.008288  	0.135397 
1193.937104  	0.144966 
1195.865920  	0.155653 
1197.794736  	0.167155 
1199.723552  	0.179602 
1201.652368  	0.192258 
1203.581184  	0.204157 
1205.510000  	0.215209 
1207.438816  	0.225056 
1209.367632  	0.233764 
1211.296448  	0.240664 
1213.225264  	0.245560 
1215.154080  	0.248186 
1217.082896  	0.249331 
1219.011712  	0.248778 
1220.940528  	0.247198 
1222.869344  	0.244419 
1224.798160  	0.240902 
1226.726976  	0.236179 
1228.655792  	0.230523 
1230.584608  	0.224319 
1232.513424  	0.217472 
1234.442240  	0.210056 
1236.371056  	0.202135 
1238.299872  	0.193702 
1240.228688  	0.184623 
1242.157504  	0.175668 
1244.086320  	0.167087 
1246.015136  	0.158297 
1247.943952  	0.149858 
1249.872768  	0.141801 
1251.801584  	0.134069 
1253.730400  	0.126725 
1255.659216  	0.119582 
1257.588032  	0.112924 
1259.516848  	0.106853 
1261.445664  	0.100981 
1263.374480  	0.095563 
1265.303296  	0.091177 
1267.232112  	0.087802 
1269.160928  	0.085550 
1271.089744  	0.084097 
1273.018560  	0.083366 
1274.947376  	0.083596 
1276.876192  	0.084844 
1278.805008  	0.085846 
1280.733824  	0.085720 
1282.662640  	0.083966 
1284.591456  	0.081850 
1286.520272  	0.080387 
1288.449088  	0.079675 
1290.377904  	0.079457 
1292.306720  	0.080688 
1294.235536  	0.081965 
1296.164352  	0.082058 
1298.093168  	0.079949 
1300.021984  	0.076778 
1301.950800  	0.073210 
1303.879616  	0.069605 
1305.808432  	0.065744 
1307.737248  	0.061777 
1309.666064  	0.057706 
1311.594880  	0.055365 
1313.523696  	0.053928 
1315.452512  	0.052496 
1317.381328  	0.052352 
1319.310144  	0.052591 
1321.238960  	0.052197 
1323.167776  	0.052651 
1325.096592  	0.053501 
1327.025408  	0.053988 
1328.954224  	0.053791 
1330.883040  	0.052857 
1332.811856  	0.051116 
1334.740672  	0.050308 
1336.669488  	0.051610 
1338.598304  	0.054278 
1340.527120  	0.052839 
1342.455936  	0.048467 
1344.384752  	0.047272 
1346.313568  	0.047838 
1348.242384  	0.049006 
1350.171200  	0.050430 
1352.100016  	0.052248 
1354.028832  	0.055148 
1355.957648  	0.057782 
1357.886464  	0.060159 
1359.815280  	0.063866 
1361.744096  	0.069585 
1363.672912  	0.072015 
1365.601728  	0.071476 
1367.530544  	0.074010 
1369.459360  	0.076685 
1371.388176  	0.077996 
1373.316992  	0.080194 
1375.245808  	0.078448 
1377.174624  	0.074038 
1379.103440  	0.070533 
1381.032256  	0.066532 
1382.961072  	0.063262 
1384.889888  	0.062338 
1386.818704  	0.063220 
1388.747520  	0.059542 
1390.676336  	0.055407 
1392.605152  	0.054304 
1394.533968  	0.055929 
1396.462784  	0.056392 
1398.391600  	0.055745 
1400.320416  	0.053282 
1402.249232  	0.051892 
1404.178048  	0.054136 
1406.106864  	0.054817 
1408.035680  	0.055081 
1409.964496  	0.057458 
1411.893312  	0.060073 
1413.822128  	0.062496 
1415.750944  	0.067554 
1417.679760  	0.073450 
1419.608576  	0.073724 
1421.537392  	0.070408 
1423.466208  	0.070397 
1425.395024  	0.067150 
1427.323840  	0.063732 
1429.252656  	0.062138 
1431.181472  	0.059594 
1433.110288  	0.058219 
1435.039104  	0.060261 
1436.967920  	0.062538 
1438.896736  	0.060906 
1440.825552  	0.060799 
1442.754368  	0.061595 
1444.683184  	0.062306 
1446.612000  	0.064248 
1448.540816  	0.064852 
1450.469632  	0.064347 
1452.398448  	0.065655 
1454.327264  	0.068581 
1456.256080  	0.074619 
1458.184896  	0.073803 
1460.113712  	0.066652 
1462.042528  	0.063778 
1463.971344  	0.064801 
1465.900160  	0.064920 
1467.828976  	0.064083 
1469.757792  	0.066691 
1471.686608  	0.074973 
1473.615424  	0.084048 
1475.544240  	0.087001 
1477.473056  	0.090148 
1479.401872  	0.093137 
1481.330688  	0.098042 
1483.259504  	0.100609 
1485.188320  	0.103915 
1487.117136  	0.108636 
1489.045952  	0.113297 
1490.974768  	0.108202 
1492.903584  	0.100741 
1494.832400  	0.097495 
1496.761216  	0.093443 
1498.690032  	0.085009 
1500.618848  	0.077162 
1502.547664  	0.071227 
1504.476480  	0.069589 
1506.405296  	0.076567 
1508.334112  	0.074792 
1510.262928  	0.065700 
1512.191744  	0.060161 
1514.120560  	0.059542 
1516.049376  	0.064440 
1517.978192  	0.066088 
1519.907008  	0.068344 
1521.835824  	0.075530 
1523.764640  	0.076745 
1525.693456  	0.080459 
1527.622272  	0.081555 
1529.551088  	0.079171 
1531.479904  	0.078666 
1533.408720  	0.078255 
1535.337536  	0.071780 
1537.266352  	0.069702 
1539.195168  	0.072393 
1541.123984  	0.071124 
1543.052800  	0.067423 
1544.981616  	0.062812 
1546.910432  	0.056050 
1548.839248  	0.056235 
1550.768064  	0.057393 
1552.696880  	0.056289 
1554.625696  	0.059163 
1556.554512  	0.061567 
1558.483328  	0.070027 
1560.412144  	0.067461 
1562.340960  	0.064931 
1564.269776  	0.067362 
1566.198592  	0.071970 
1568.127408  	0.076966 
1570.056224  	0.084884 
1571.985040  	0.087896 
1573.913856  	0.092217 
1575.842672  	0.098207 
1577.771488  	0.099938 
1579.700304  	0.097165 
1581.629120  	0.095712 
1583.557936  	0.094814 
1585.486752  	0.095839 
1587.415568  	0.098506 
1589.344384  	0.104039 
1591.273200  	0.110910 
1593.202016  	0.119600 
1595.130832  	0.128879 
1597.059648  	0.137827 
1598.988464  	0.145502 
1600.917280  	0.153719 
1602.846096  	0.159797 
1604.774912  	0.163532 
1606.703728  	0.165182 
1608.632544  	0.165676 
1610.561360  	0.163114 
1612.490176  	0.161046 
1614.418992  	0.160370 
1616.347808  	0.162367 
1618.276624  	0.162781 
1620.205440  	0.165624 
1622.134256  	0.171104 
1624.063072  	0.179272 
1625.991888  	0.185150 
1627.920704  	0.194558 
1629.849520  	0.203432 
1631.778336  	0.212614 
1633.707152  	0.222189 
1635.635968  	0.236658 
1637.564784  	0.244549 
1639.493600  	0.247779 
1641.422416  	0.251094 
1643.351232  	0.255406 
1645.280048  	0.259527 
1647.208864  	0.263932 
1649.137680  	0.259903 
1651.066496  	0.259088 
1652.995312  	0.258883 
1654.924128  	0.253213 
1656.852944  	0.247086 
1658.781760  	0.242674 
1660.710576  	0.239532 
1662.639392  	0.235168 
1664.568208  	0.226870 
1666.497024  	0.222523 
1668.425840  	0.219190 
1670.354656  	0.211332 
1672.283472  	0.203141 
1674.212288  	0.198445 
1676.141104  	0.191382 
1678.069920  	0.187480 
1679.998736  	0.187499 
1681.927552  	0.187574 
1683.856368  	0.187571 
1685.785184  	0.181883 
1687.714000  	0.179827 
1689.642816  	0.178406 
1691.571632  	0.174901 
1693.500448  	0.174352 
1695.429264  	0.176225 
1697.358080  	0.177162 
1699.286896  	0.175421 
1701.215712  	0.170838 
1703.144528  	0.167792 
1705.073344  	0.165571 
1707.002160  	0.158805 
1708.930976  	0.151986 
1710.859792  	0.145266 
1712.788608  	0.139618 
1714.717424  	0.134423 
1716.646240  	0.125575 
1718.575056  	0.105841 
1720.503872  	0.089874 
1722.432688  	0.079612 
1724.361504  	0.067392 
1726.290320  	0.056760 
1728.219136  	0.050091 
1730.147952  	0.045880 
1732.076768  	0.042049 
1734.005584  	0.038378 
1735.934400  	0.028618 
1737.863216  	0.025711 
1739.792032  	0.022934 
1741.720848  	0.020760 
1743.649664  	0.020586 
1745.578480  	0.019210 
1747.507296  	0.019258 
1749.436112  	0.019857 
1751.364928  	0.016365 
1753.293744  	0.011308 
1755.222560  	0.009883 
1757.151376  	0.010939 
1759.080192  	0.009432 
1761.009008  	0.009499 
1762.937824  	0.007791 
1764.866640  	0.005912 
1766.795456  	0.006937 
1768.724272  	0.008505 
1770.653088  	0.008680 
1772.581904  	0.009319 
1774.510720  	0.006803 
1776.439536  	0.005271 
1778.368352  	0.004287 
1780.297168  	0.005163 
1782.225984  	0.003802 
1784.154800  	0.003516 
1786.083616  	0.002539 
1788.012432  	0.001982 
1789.941248  	0.004089 
1791.870064  	0.006798 
1793.798880  	0.004628 
1795.727696  	0.003658 
1797.656512  	0.002485 
1799.585328  	0.002811 
1801.514144  	0.003476 
1803.442960  	0.001934 
1805.371776  	0.000400 
1807.300592  	0.000602 
1809.229408  	0.000933 
1811.158224  	0.001388 
1813.087040  	-0.000172 
1815.015856  	-0.001177 
1816.944672  	-0.000765 
1818.873488  	-0.000645 
1820.802304  	-0.000851 
1822.731120  	0.000058 
1824.659936  	0.001117 
1826.588752  	0.000985 
1828.517568  	0.001457 
1830.446384  	0.001829 
1832.375200  	-0.000735 
1834.304016  	-0.001128 
1836.232832  	-0.000748 
1838.161648  	-0.000430 
1840.090464  	-0.001128 
1842.019280  	0.000285 
1843.948096  	0.002056 
1845.876912  	0.001492 
1847.805728  	-0.000069 
1849.734544  	-0.001365 
1851.663360  	-0.002249 
1853.592176  	-0.001934 
1855.520992  	-0.002304 
1857.449808  	-0.001921 
1859.378624  	-0.002178 
1861.307440  	-0.002057 
1863.236256  	-0.002455 
1865.165072  	-0.001576 
1867.093888  	0.000795 
1869.022704  	0.002614 
1870.951520  	-0.000385 
1872.880336  	-0.002275 
1874.809152  	-0.003052 
1876.737968  	-0.002909 
1878.666784  	-0.002994 
1880.595600  	-0.003054 
1882.524416  	-0.003039 
1884.453232  	-0.002316 
1886.382048  	-0.002593 
1888.310864  	-0.001358 
1890.239680  	-0.001157 
1892.168496  	-0.001937 
1894.097312  	-0.001593 
1896.026128  	-0.001694 
1897.954944  	-0.002939 
1899.883760  	-0.003036 
1901.812576  	-0.003178 
1903.741392  	-0.002833 
1905.670208  	-0.002862 
1907.599024  	-0.002151 
1909.527840  	-0.001626 
1911.456656  	-0.001655 
1913.385472  	-0.002353 
1915.314288  	-0.001894 
1917.243104  	-0.001238 
1919.171920  	-0.001059 
1921.100736  	-0.001185 
1923.029552  	-0.000372 
1924.958368  	-0.002969 
1926.887184  	-0.003934 
1928.816000  	-0.004288 
1930.744816  	-0.003565 
1932.673632  	-0.003317 
1934.602448  	-0.002946 
1936.531264  	-0.003510 
1938.460080  	-0.002964 
1940.388896  	-0.002077 
1942.317712  	-0.000088 
1944.246528  	-0.001610 
1946.175344  	-0.002127 
1948.104160  	-0.002661 
1950.032976  	-0.002875 
1951.961792  	-0.003871 
1953.890608  	-0.003428 
1955.819424  	-0.003972 
1957.748240  	-0.004136 
1959.677056  	-0.004646 
1961.605872  	-0.003897 
1963.534688  	-0.004066 
1965.463504  	-0.002142 
1967.392320  	-0.002433 
1969.321136  	-0.003216 
1971.249952  	-0.004581 
1973.178768  	-0.004070 
1975.107584  	-0.004053 
1977.036400  	-0.002425 
1978.965216  	-0.002359 
1980.894032  	-0.001642 
1982.822848  	-0.002660 
1984.751664  	-0.002701 
1986.680480  	-0.002787 
1988.609296  	-0.001975 
1990.538112  	-0.001157 
1992.466928  	0.000581 
1994.395744  	-0.001927 
1996.324560  	-0.002921 
1998.253376  	-0.002948 
2000.182192  	-0.002518 
2002.111008  	-0.003028 
2004.039824  	-0.002484 
2005.968640  	-0.003250 
2007.897456  	-0.002534 
2009.826272  	-0.002074 
2011.755088  	-0.000976 
2013.683904  	-0.001687 
2015.612720  	-0.000156 
2017.541536  	0.000074 
2019.470352  	-0.000449 
2021.399168  	-0.002422 
2023.327984  	-0.002256 
2025.256800  	-0.001390 
2027.185616  	0.000982 
2029.114432  	0.000792 
2031.043248  	-0.000310 
2032.972064  	-0.001390 
2034.900880  	-0.000349 
2036.829696  	-0.000262 
2038.758512  	0.000252 
2040.687328  	-0.000777 
2042.616144  	-0.000489 
2044.544960  	-0.000916 
2046.473776  	-0.000481 
2048.402592  	0.000114 
2050.331408  	0.000989 
2052.260224  	0.000542 
2054.189040  	0.000024 
2056.117856  	-0.000835 
2058.046672  	-0.000452 
2059.975488  	-0.000130 
2061.904304  	0.000750 
2063.833120  	0.001054 
2065.761936  	0.001678 
2067.690752  	0.000783 
2069.619568  	0.000027 
2071.548384  	-0.000644 
2073.477200  	0.000308 
2075.406016  	0.000673 
2077.334832  	0.001138 
2079.263648  	0.001010 
2081.192464  	0.001411 
2083.121280  	0.001055 
2085.050096  	0.000773 
2086.978912  	0.000468 
2088.907728  	0.000802 
2090.836544  	0.000856 
2092.765360  	0.000736 
2094.694176  	0.000927 
2096.622992  	0.001678 
2098.551808  	0.001391 
2100.480624  	0.001496 
2102.409440  	0.001505 
2104.338256  	0.001520 
2106.267072  	0.000987 
2108.195888  	0.001197 
2110.124704  	0.001453 
2112.053520  	0.001892 
2113.982336  	0.001911 
2115.911152  	0.001611 
2117.839968  	0.000697 
2119.768784  	0.000536 
2121.697600  	0.000633 
2123.626416  	0.000763 
2125.555232  	0.000124 
2127.484048  	0.000006 
2129.412864  	0.000376 
2131.341680  	0.001260 
2133.270496  	0.001233 
2135.199312  	0.001549 
2137.128128  	0.001919 
2139.056944  	0.002371 
2140.985760  	0.001582 
2142.914576  	0.001797 
2144.843392  	0.001251 
2146.772208  	0.001162 
2148.701024  	0.000640 
2150.629840  	0.000020 
2152.558656  	0.000179 
2154.487472  	0.001747 
2156.416288  	0.001616 
2158.345104  	0.003380 
2160.273920  	0.005498 
2162.202736  	0.006304 
2164.131552  	0.004963 
2166.060368  	0.005409 
2167.989184  	0.004044 
2169.918000  	0.002901 
2171.846816  	0.002612 
2173.775632  	0.002413 
2175.704448  	0.002025 
2177.633264  	0.002756 
2179.562080  	0.002081 
2181.490896  	0.002720 
2183.419712  	0.002603 
2185.348528  	0.002492 
2187.277344  	0.001892 
2189.206160  	0.002451 
2191.134976  	0.002401 
2193.063792  	0.002163 
2194.992608  	0.001566 
2196.921424  	0.001704 
2198.850240  	0.001294 
2200.779056  	0.000992 
2202.707872  	0.000821 
2204.636688  	0.001200 
2206.565504  	0.000941 
2208.494320  	0.000578 
2210.423136  	0.000280 
2212.351952  	0.000842 
2214.280768  	0.000395 
2216.209584  	0.000435 
2218.138400  	-0.000233 
2220.067216  	-0.000402 
2221.996032  	-0.000576 
2223.924848  	0.000388 
2225.853664  	0.000849 
2227.782480  	0.000872 
2229.711296  	-0.000112 
2231.640112  	-0.000174 
2233.568928  	-0.000373 
2235.497744  	-0.000171 
2237.426560  	-0.000375 
2239.355376  	-0.000219 
2241.284192  	-0.000716 
2243.213008  	-0.000754 
2245.141824  	-0.000698 
2247.070640  	-0.000828 
2248.999456  	-0.001009 
2250.928272  	-0.000798 
2252.857088  	-0.000982 
2254.785904  	-0.000658 
2256.714720  	-0.000470 
2258.643536  	-0.000417 
2260.572352  	-0.000210 
2262.501168  	0.000010 
2264.429984  	0.000241 
2266.358800  	0.000156 
2268.287616  	-0.000495 
2270.216432  	-0.000249 
2272.145248  	-0.000174 
2274.074064  	-0.000185 
2276.002880  	-0.000421 
2277.931696  	-0.000024 
2279.860512  	0.000348 
2281.789328  	0.000772 
2283.718144  	0.000728 
2285.646960  	0.000885 
2287.575776  	0.000965 
2289.504592  	0.001015 
2291.433408  	0.001139 
2293.362224  	0.001582 
2295.291040  	0.001521 
2297.219856  	0.001913 
2299.148672  	0.002277 
2301.077488  	0.002641 
2303.006304  	0.003151 
2304.935120  	0.003828 
2306.863936  	0.003945 
2308.792752  	0.004022 
2310.721568  	0.003902 
2312.650384  	0.003391 
2314.579200  	0.002776 
2316.508016  	0.002874 
2318.436832  	0.002783 
2320.365648  	0.002609 
2322.294464  	0.002328 
2324.223280  	0.000937 
2326.152096  	-0.001221 
2328.080912  	-0.002605 
2330.009728  	-0.003340 
2331.938544  	-0.004000 
2333.867360  	-0.005425 
2335.796176  	-0.006474 
2337.724992  	-0.006944 
2339.653808  	-0.007185 
2341.582624  	-0.006905 
2343.511440  	-0.005234 
2345.440256  	-0.003082 
2347.369072  	-0.001134 
2349.297888  	-0.000518 
2351.226704  	-0.001991 
2353.155520  	-0.004676 
2355.084336  	-0.006494 
2357.013152  	-0.007632 
2358.941968  	-0.008415 
2360.870784  	-0.009120 
2362.799600  	-0.008816 
2364.728416  	-0.007991 
2366.657232  	-0.006508 
2368.586048  	-0.005034 
2370.514864  	-0.003267 
2372.443680  	-0.001412 
2374.372496  	0.000674 
2376.301312  	0.001958 
2378.230128  	0.002570 
2380.158944  	0.002481 
2382.087760  	0.002076 
2384.016576  	0.001276 
2385.945392  	0.000535 
2387.874208  	0.000106 
2389.803024  	-0.000229 
2391.731840  	-0.000701 
2393.660656  	-0.000677 
2395.589472  	-0.000612 
2397.518288  	-0.000590 
2399.447104  	-0.000618 
2401.375920  	-0.000534 
2403.304736  	-0.000733 
2405.233552  	-0.000822 
2407.162368  	-0.000897 
2409.091184  	-0.000857 
2411.020000  	-0.000830 
2412.948816  	-0.000750 
2414.877632  	-0.000608 
2416.806448  	-0.000369 
2418.735264  	-0.000246 
2420.664080  	-0.000159 
2422.592896  	-0.000350 
2424.521712  	-0.000238 
2426.450528  	-0.000115 
2428.379344  	0.000081 
2430.308160  	0.000202 
2432.236976  	0.000216 
2434.165792  	0.000255 
2436.094608  	0.000592 
2438.023424  	0.000726 
2439.952240  	0.000657 
2441.881056  	0.000638 
2443.809872  	0.000730 
2445.738688  	0.000699 
2447.667504  	0.000710 
2449.596320  	0.001041 
2451.525136  	0.001353 
2453.453952  	0.001408 
2455.382768  	0.001403 
2457.311584  	0.001283 
2459.240400  	0.001262 
2461.169216  	0.001326 
2463.098032  	0.001611 
2465.026848  	0.001635 
2466.955664  	0.001638 
2468.884480  	0.001601 
2470.813296  	0.001705 
2472.742112  	0.001827 
2474.670928  	0.002049 
2476.599744  	0.002415 
2478.528560  	0.002687 
2480.457376  	0.002830 
2482.386192  	0.002917 
2484.315008  	0.002735 
2486.243824  	0.002709 
2488.172640  	0.003032 
2490.101456  	0.003496 
2492.030272  	0.003700 
2493.959088  	0.003711 
2495.887904  	0.003415 
2497.816720  	0.003576 
2499.745536  	0.003674 
2501.674352  	0.003738 
2503.603168  	0.003866 
2505.531984  	0.004150 
2507.460800  	0.004017 
2509.389616  	0.003983 
2511.318432  	0.004093 
2513.247248  	0.004269 
2515.176064  	0.004446 
2517.104880  	0.004557 
2519.033696  	0.004447 
2520.962512  	0.004635 
2522.891328  	0.004659 
2524.820144  	0.004914 
2526.748960  	0.005235 
2528.677776  	0.005493 
2530.606592  	0.005447 
2532.535408  	0.005560 
2534.464224  	0.005617 
2536.393040  	0.005500 
2538.321856  	0.005562 
2540.250672  	0.005817 
2542.179488  	0.006004 
2544.108304  	0.006048 
2546.037120  	0.006099 
2547.965936  	0.006437 
2549.894752  	0.006719 
2551.823568  	0.006901 
2553.752384  	0.006900 
2555.681200  	0.006985 
2557.610016  	0.007071 
2559.538832  	0.007104 
2561.467648  	0.007262 
2563.396464  	0.007544 
2565.325280  	0.007670 
2567.254096  	0.007812 
2569.182912  	0.007939 
2571.111728  	0.007984 
2573.040544  	0.007999 
2574.969360  	0.008347 
2576.898176  	0.008655 
2578.826992  	0.008712 
2580.755808  	0.008717 
2582.684624  	0.009038 
2584.613440  	0.009024 
2586.542256  	0.009090 
2588.471072  	0.009304 
2590.399888  	0.009386 
2592.328704  	0.009518 
2594.257520  	0.009852 
2596.186336  	0.009849 
2598.115152  	0.009996 
2600.043968  	0.010247 
2601.972784  	0.010328 
2603.901600  	0.010484 
2605.830416  	0.010607 
2607.759232  	0.010659 
2609.688048  	0.010730 
2611.616864  	0.010955 
2613.545680  	0.011219 
2615.474496  	0.011475 
2617.403312  	0.011764 
2619.332128  	0.011789 
2621.260944  	0.011846 
2623.189760  	0.012039 
2625.118576  	0.012376 
2627.047392  	0.012528 
2628.976208  	0.012733 
2630.905024  	0.012920 
2632.833840  	0.013145 
2634.762656  	0.013264 
2636.691472  	0.013459 
2638.620288  	0.013599 
2640.549104  	0.013876 
2642.477920  	0.014220 
2644.406736  	0.014399 
2646.335552  	0.014524 
2648.264368  	0.014729 
2650.193184  	0.014983 
2652.122000  	0.015253 
2654.050816  	0.015461 
2655.979632  	0.015739 
2657.908448  	0.016047 
2659.837264  	0.016248 
2661.766080  	0.016433 
2663.694896  	0.016662 
2665.623712  	0.016823 
2667.552528  	0.016996 
2669.481344  	0.017092 
2671.410160  	0.017242 
2673.338976  	0.017525 
2675.267792  	0.017836 
2677.196608  	0.018059 
2679.125424  	0.018279 
2681.054240  	0.018534 
2682.983056  	0.018792 
2684.911872  	0.018948 
2686.840688  	0.019180 
2688.769504  	0.019385 
2690.698320  	0.019542 
2692.627136  	0.019685 
2694.555952  	0.019856 
2696.484768  	0.020065 
2698.413584  	0.020276 
2700.342400  	0.020426 
2702.271216  	0.020662 
2704.200032  	0.020894 
2706.128848  	0.021044 
2708.057664  	0.021205 
2709.986480  	0.021365 
2711.915296  	0.021613 
2713.844112  	0.021924 
2715.772928  	0.022169 
2717.701744  	0.022345 
2719.630560  	0.022598 
2721.559376  	0.022821 
2723.488192  	0.022992 
2725.417008  	0.023281 
2727.345824  	0.023602 
2729.274640  	0.023913 
2731.203456  	0.024015 
2733.132272  	0.024138 
2735.061088  	0.024431 
2736.989904  	0.024621 
2738.918720  	0.024759 
2740.847536  	0.024932 
2742.776352  	0.025182 
2744.705168  	0.025521 
2746.633984  	0.025639 
2748.562800  	0.025770 
2750.491616  	0.025947 
2752.420432  	0.026108 
2754.349248  	0.026142 
2756.278064  	0.026130 
2758.206880  	0.026106 
2760.135696  	0.026091 
2762.064512  	0.026130 
2763.993328  	0.026276 
2765.922144  	0.026450 
2767.850960  	0.026571 
2769.779776  	0.026611 
2771.708592  	0.026672 
2773.637408  	0.026627 
2775.566224  	0.026692 
2777.495040  	0.026742 
2779.423856  	0.026717 
2781.352672  	0.026757 
2783.281488  	0.026836 
2785.210304  	0.026838 
2787.139120  	0.026860 
2789.067936  	0.026800 
2790.996752  	0.026844 
2792.925568  	0.026967 
2794.854384  	0.027039 
2796.783200  	0.027037 
2798.712016  	0.027055 
2800.640832  	0.027124 
2802.569648  	0.027275 
2804.498464  	0.027338 
2806.427280  	0.027403 
2808.356096  	0.027543 
2810.284912  	0.027619 
2812.213728  	0.027551 
2814.142544  	0.027533 
2816.071360  	0.027582 
2818.000176  	0.027861 
2819.928992  	0.027974 
2821.857808  	0.028004 
2823.786624  	0.028014 
2825.715440  	0.028068 
2827.644256  	0.028202 
2829.573072  	0.028357 
2831.501888  	0.028425 
2833.430704  	0.028360 
2835.359520  	0.028240 
2837.288336  	0.028251 
2839.217152  	0.028381 
2841.145968  	0.028524 
2843.074784  	0.028669 
2845.003600  	0.028943 
2846.932416  	0.029227 
2848.861232  	0.029634 
2850.790048  	0.029900 
2852.718864  	0.030029 
2854.647680  	0.030055 
2856.576496  	0.030061 
2858.505312  	0.030071 
2860.434128  	0.030341 
2862.362944  	0.030526 
2864.291760  	0.030688 
2866.220576  	0.030905 
2868.149392  	0.031127 
2870.078208  	0.031357 
2872.007024  	0.031772 
2873.935840  	0.032434 
2875.864656  	0.032942 
2877.793472  	0.033376 
2879.722288  	0.034049 
2881.651104  	0.034685 
2883.579920  	0.035189 
2885.508736  	0.035614 
2887.437552  	0.035969 
2889.366368  	0.036146 
2891.295184  	0.036274 
2893.224000  	0.036420 
2895.152816  	0.036472 
2897.081632  	0.036517 
2899.010448  	0.036341 
2900.939264  	0.036035 
2902.868080  	0.036234 
2904.796896  	0.036608 
2906.725712  	0.037031 
2908.654528  	0.037520 
2910.583344  	0.038039 
2912.512160  	0.038627 
2914.440976  	0.039536 
2916.369792  	0.040601 
2918.298608  	0.041340 
2920.227424  	0.041823 
2922.156240  	0.042363 
2924.085056  	0.042971 
2926.013872  	0.043517 
2927.942688  	0.044279 
2929.871504  	0.045203 
2931.800320  	0.046071 
2933.729136  	0.046881 
2935.657952  	0.047613 
2937.586768  	0.048312 
2939.515584  	0.048927 
2941.444400  	0.049391 
2943.373216  	0.049890 
2945.302032  	0.050349 
2947.230848  	0.050612 
2949.159664  	0.050513 
2951.088480  	0.050296 
2953.017296  	0.050355 
2954.946112  	0.050241 
2956.874928  	0.049929 
2958.803744  	0.049654 
2960.732560  	0.049379 
2962.661376  	0.049097 
2964.590192  	0.048711 
2966.519008  	0.048283 
2968.447824  	0.047854 
2970.376640  	0.047443 
2972.305456  	0.047088 
2974.234272  	0.047090 
2976.163088  	0.047032 
2978.091904  	0.046762 
2980.020720  	0.046593 
2981.949536  	0.046446 
2983.878352  	0.046356 
2985.807168  	0.046372 
2987.735984  	0.046391 
2989.664800  	0.046461 
2991.593616  	0.047001 
2993.522432  	0.047537 
2995.451248  	0.047940 
2997.380064  	0.048348 
2999.308880  	0.048830 
3001.237696  	0.049376 
3003.166512  	0.050153 
3005.095328  	0.050743 
3007.024144  	0.051166 
3008.952960  	0.051996 
3010.881776  	0.053073 
3012.810592  	0.053975 
3014.739408  	0.054635 
3016.668224  	0.055214 
3018.597040  	0.055756 
3020.525856  	0.056511 
3022.454672  	0.057246 
3024.383488  	0.057882 
3026.312304  	0.058655 
3028.241120  	0.059397 
3030.169936  	0.060349 
3032.098752  	0.061353 
3034.027568  	0.061798 
3035.956384  	0.062374 
3037.885200  	0.063141 
3039.814016  	0.064083 
3041.742832  	0.064898 
3043.671648  	0.065760 
3045.600464  	0.066630 
3047.529280  	0.067421 
3049.458096  	0.068339 
3051.386912  	0.069171 
3053.315728  	0.069969 
3055.244544  	0.070939 
3057.173360  	0.072044 
3059.102176  	0.073175 
3061.030992  	0.074283 
3062.959808  	0.075364 
3064.888624  	0.076602 
3066.817440  	0.077883 
3068.746256  	0.079040 
3070.675072  	0.080034 
3072.603888  	0.081165 
3074.532704  	0.082384 
3076.461520  	0.083717 
3078.390336  	0.085025 
3080.319152  	0.086197 
3082.247968  	0.087111 
3084.176784  	0.087952 
3086.105600  	0.089175 
3088.034416  	0.090424 
3089.963232  	0.091512 
3091.892048  	0.092688 
3093.820864  	0.093932 
3095.749680  	0.095417 
3097.678496  	0.096672 
3099.607312  	0.097908 
3101.536128  	0.099232 
3103.464944  	0.100230 
3105.393760  	0.101167 
3107.322576  	0.102432 
3109.251392  	0.103710 
3111.180208  	0.104764 
3113.109024  	0.105649 
3115.037840  	0.106680 
3116.966656  	0.107862 
3118.895472  	0.108898 
3120.824288  	0.109918 
3122.753104  	0.111068 
3124.681920  	0.111778 
3126.610736  	0.112401 
3128.539552  	0.113136 
3130.468368  	0.114083 
3132.397184  	0.115221 
3134.326000  	0.116049 
3136.254816  	0.116746 
3138.183632  	0.117547 
3140.112448  	0.118228 
3142.041264  	0.119174 
3143.970080  	0.120359 
3145.898896  	0.121301 
3147.827712  	0.122089 
3149.756528  	0.123147 
3151.685344  	0.124090 
3153.614160  	0.124954 
3155.542976  	0.125660 
3157.471792  	0.126502 
3159.400608  	0.127458 
3161.329424  	0.128420 
3163.258240  	0.129442 
3165.187056  	0.130260 
3167.115872  	0.130895 
3169.044688  	0.131694 
3170.973504  	0.132330 
3172.902320  	0.132850 
3174.831136  	0.133392 
3176.759952  	0.134186 
3178.688768  	0.134881 
3180.617584  	0.135125 
3182.546400  	0.135464 
3184.475216  	0.135863 
3186.404032  	0.136295 
3188.332848  	0.136648 
3190.261664  	0.136761 
3192.190480  	0.136918 
3194.119296  	0.136812 
3196.048112  	0.136664 
3197.976928  	0.136823 
3199.905744  	0.136824 
3201.834560  	0.136680 
3203.763376  	0.136565 
3205.692192  	0.136267 
3207.621008  	0.136248 
3209.549824  	0.136299 
3211.478640  	0.136318 
3213.407456  	0.136120 
3215.336272  	0.135872 
3217.265088  	0.135645 
3219.193904  	0.135676 
3221.122720  	0.135623 
3223.051536  	0.135135 
3224.980352  	0.134803 
3226.909168  	0.134822 
3228.837984  	0.134387 
3230.766800  	0.134051 
3232.695616  	0.134197 
3234.624432  	0.134164 
3236.553248  	0.134184 
3238.482064  	0.134221 
3240.410880  	0.133954 
3242.339696  	0.133902 
3244.268512  	0.134162 
3246.197328  	0.134336 
3248.126144  	0.134240 
3250.054960  	0.134359 
3251.983776  	0.134822 
3253.912592  	0.135179 
3255.841408  	0.135287 
3257.770224  	0.135394 
3259.699040  	0.135762 
3261.627856  	0.136053 
3263.556672  	0.136075 
3265.485488  	0.136338 
3267.414304  	0.136575 
3269.343120  	0.136786 
3271.271936  	0.137061 
3273.200752  	0.137347 
3275.129568  	0.137548 
3277.058384  	0.137629 
3278.987200  	0.137682 
3280.916016  	0.137770 
3282.844832  	0.137823 
3284.773648  	0.138023 
3286.702464  	0.138265 
3288.631280  	0.138653 
3290.560096  	0.138892 
3292.488912  	0.138948 
3294.417728  	0.139027 
3296.346544  	0.139450 
3298.275360  	0.139762 
3300.204176  	0.140014 
3302.132992  	0.140125 
3304.061808  	0.140526 
3305.990624  	0.141185 
3307.919440  	0.141842 
3309.848256  	0.142191 
3311.777072  	0.142310 
3313.705888  	0.142535 
3315.634704  	0.142953 
3317.563520  	0.143127 
3319.492336  	0.143110 
3321.421152  	0.143366 
3323.349968  	0.143642 
3325.278784  	0.143769 
3327.207600  	0.144080 
3329.136416  	0.143888 
3331.065232  	0.143658 
3332.994048  	0.143797 
3334.922864  	0.144125 
3336.851680  	0.144162 
3338.780496  	0.143622 
3340.709312  	0.143081 
3342.638128  	0.142937 
3344.566944  	0.142577 
3346.495760  	0.142065 
3348.424576  	0.141816 
3350.353392  	0.141645 
3352.282208  	0.141292 
3354.211024  	0.140853 
3356.139840  	0.140440 
3358.068656  	0.139901 
3359.997472  	0.139504 
3361.926288  	0.139069 
3363.855104  	0.138565 
3365.783920  	0.138201 
3367.712736  	0.137583 
3369.641552  	0.136823 
3371.570368  	0.136104 
3373.499184  	0.135707 
3375.428000  	0.135428 
3377.356816  	0.134947 
3379.285632  	0.134346 
3381.214448  	0.133852 
3383.143264  	0.133527 
3385.072080  	0.133171 
3387.000896  	0.132158 
3388.929712  	0.131269 
3390.858528  	0.131044 
3392.787344  	0.131053 
3394.716160  	0.130206 
3396.644976  	0.129655 
3398.573792  	0.128859 
3400.502608  	0.127744 
3402.431424  	0.126913 
3404.360240  	0.126277 
3406.289056  	0.125415 
3408.217872  	0.124571 
3410.146688  	0.123924 
3412.075504  	0.123192 
3414.004320  	0.122404 
3415.933136  	0.121804 
3417.861952  	0.121317 
3419.790768  	0.121243 
3421.719584  	0.120517 
3423.648400  	0.119146 
3425.577216  	0.117813 
3427.506032  	0.116956 
3429.434848  	0.116083 
3431.363664  	0.115480 
3433.292480  	0.114519 
3435.221296  	0.113547 
3437.150112  	0.112568 
3439.078928  	0.111530 
3441.007744  	0.110899 
3442.936560  	0.110364 
3444.865376  	0.109363 
3446.794192  	0.109111 
3448.723008  	0.107781 
3450.651824  	0.105893 
3452.580640  	0.104743 
3454.509456  	0.103797 
3456.438272  	0.102796 
3458.367088  	0.101848 
3460.295904  	0.101114 
3462.224720  	0.100296 
3464.153536  	0.098960 
3466.082352  	0.097655 
3468.011168  	0.096436 
3469.939984  	0.095177 
3471.868800  	0.093763 
3473.797616  	0.092582 
3475.726432  	0.091490 
3477.655248  	0.090110 
3479.584064  	0.089315 
3481.512880  	0.089117 
3483.441696  	0.087457 
3485.370512  	0.085483 
3487.299328  	0.084697 
3489.228144  	0.083325 
3491.156960  	0.081491 
3493.085776  	0.080620 
3495.014592  	0.079899 
3496.943408  	0.078821 
3498.872224  	0.077562 
3500.801040  	0.077875 
3502.729856  	0.078313 
3504.658672  	0.076236 
3506.587488  	0.073415 
3508.516304  	0.072986 
3510.445120  	0.072345 
3512.373936  	0.070313 
3514.302752  	0.068909 
3516.231568  	0.068027 
3518.160384  	0.067084 
3520.089200  	0.066215 
3522.018016  	0.066619 
3523.946832  	0.067155 
3525.875648  	0.065821 
3527.804464  	0.064578 
3529.733280  	0.062697 
3531.662096  	0.060422 
3533.590912  	0.058611 
3535.519728  	0.058415 
3537.448544  	0.057525 
3539.377360  	0.055525 
3541.306176  	0.054696 
3543.234992  	0.055804 
3545.163808  	0.057647 
3547.092624  	0.056240 
3549.021440  	0.052620 
3550.950256  	0.051395 
3552.879072  	0.051215 
3554.807888  	0.048654 
3556.736704  	0.046413 
3558.665520  	0.046311 
3560.594336  	0.046670 
3562.523152  	0.046000 
3564.451968  	0.047212 
3566.380784  	0.051281 
3568.309600  	0.049067 
3570.238416  	0.042552 
3572.167232  	0.039334 
3574.096048  	0.038304 
3576.024864  	0.037286 
3577.953680  	0.036197 
3579.882496  	0.035405 
3581.811312  	0.034144 
3583.740128  	0.033780 
3585.668944  	0.035710 
3587.597760  	0.038105 
3589.526576  	0.033561 
3591.455392  	0.029492 
3593.384208  	0.029756 
3595.313024  	0.029999 
3597.241840  	0.028026 
3599.170656  	0.026318 
3601.099472  	0.025008 
3603.028288  	0.022567 
3604.957104  	0.021143 
3606.885920  	0.022925 
3608.814736  	0.023754 
3610.743552  	0.021380 
3612.672368  	0.021534 
3614.601184  	0.020677 
3616.530000  	0.018311 
3618.458816  	0.018638 
3620.387632  	0.016880 
3622.316448  	0.012394 
3624.245264  	0.010128 
3626.174080  	0.010774 
3628.102896  	0.014030 
3630.031712  	0.013823 
3631.960528  	0.008500 
3633.889344  	0.006109 
3635.818160  	0.003827 
3637.746976  	0.002209 
3639.675792  	0.001409 
3641.604608  	0.001011 
3643.533424  	0.000297 
3645.462240  	0.000980 
3647.391056  	0.005938 
3649.319872  	0.008232 
3651.248688  	0.003093 
3653.177504  	-0.003287 
3655.106320  	-0.005128 
3657.035136  	-0.005480 
3658.963952  	-0.007739 
3660.892768  	-0.009248 
3662.821584  	-0.010355 
3664.750400  	-0.010967 
3666.679216  	-0.010500 
3668.608032  	-0.008004 
3670.536848  	-0.005698 
3672.465664  	-0.008256 
3674.394480  	-0.007221 
3676.323296  	-0.005307 
3678.252112  	-0.009437 
3680.180928  	-0.012135 
3682.109744  	-0.014172 
3684.038560  	-0.014692 
3685.967376  	-0.014318 
3687.896192  	-0.011645 
3689.825008  	-0.009023 
3691.753824  	-0.011670 
3693.682640  	-0.014559 
3695.611456  	-0.015563 
3697.540272  	-0.015942 
3699.469088  	-0.016170 
3701.397904  	-0.014793 
3703.326720  	-0.014978 
3705.255536  	-0.015943 
3707.184352  	-0.015480 
3709.113168  	-0.013254 
3711.041984  	-0.009711 
3712.970800  	-0.010871 
3714.899616  	-0.014410 
3716.828432  	-0.016153 
3718.757248  	-0.015494 
3720.686064  	-0.014466 
3722.614880  	-0.012761 
3724.543696  	-0.011833 
3726.472512  	-0.011822 
3728.401328  	-0.014389 
3730.330144  	-0.015787 
3732.258960  	-0.013342 
3734.187776  	-0.007748 
3736.116592  	-0.004565 
3738.045408  	-0.009702 
3739.974224  	-0.012358 
3741.903040  	-0.012821 
3743.831856  	-0.011711 
3745.760672  	-0.009738 
3747.689488  	-0.010887 
3749.618304  	-0.008980 
3751.547120  	-0.007192 
3753.475936  	-0.010849 
3755.404752  	-0.013933 
3757.333568  	-0.013920 
3759.262384  	-0.013027 
3761.191200  	-0.014650 
3763.120016  	-0.016327 
3765.048832  	-0.015137 
3766.977648  	-0.014941 
3768.906464  	-0.015090 
3770.835280  	-0.014889 
3772.764096  	-0.016846 
3774.692912  	-0.017931 
3776.621728  	-0.017749 
3778.550544  	-0.016237 
3780.479360  	-0.015702 
3782.408176  	-0.016948 
3784.336992  	-0.016417 
3786.265808  	-0.016467 
3788.194624  	-0.017741 
3790.123440  	-0.018118 
3792.052256  	-0.018226 
3793.981072  	-0.018200 
3795.909888  	-0.015958 
3797.838704  	-0.013962 
3799.767520  	-0.014122 
3801.696336  	-0.011812 
3803.625152  	-0.013735 
3805.553968  	-0.015629 
3807.482784  	-0.014966 
3809.411600  	-0.016715 
3811.340416  	-0.017861 
3813.269232  	-0.017664 
3815.198048  	-0.015456 
3817.126864  	-0.013551 
3819.055680  	-0.013877 
3820.984496  	-0.011477 
3822.913312  	-0.012787 
3824.842128  	-0.015262 
3826.770944  	-0.015417 
3828.699760  	-0.016239 
3830.628576  	-0.016439 
3832.557392  	-0.015644 
3834.486208  	-0.015357 
3836.415024  	-0.013993 
3838.343840  	-0.011373 
3840.272656  	-0.010732 
3842.201472  	-0.013037 
3844.130288  	-0.014470 
3846.059104  	-0.016519 
3847.987920  	-0.017282 
3849.916736  	-0.015801 
3851.845552  	-0.012533 
3853.774368  	-0.008387 
3855.703184  	-0.011052 
3857.632000  	-0.013925 
3859.560816  	-0.016152 
3861.489632  	-0.015345 
3863.418448  	-0.012917 
3865.347264  	-0.012122 
3867.276080  	-0.014365 
3869.204896  	-0.012705 
3871.133712  	-0.011207 
3873.062528  	-0.013400 
3874.991344  	-0.014370 
3876.920160  	-0.017028 
3878.848976  	-0.016370 
3880.777792  	-0.012923 
3882.706608  	-0.013328 
3884.635424  	-0.013776 
3886.564240  	-0.014358 
3888.493056  	-0.017159 
3890.421872  	-0.016197 
3892.350688  	-0.014227 
3894.279504  	-0.015845 
3896.208320  	-0.017120 
3898.137136  	-0.015262 
3900.065952  	-0.012250 
3901.994768  	-0.011022 
3903.923584  	-0.010546 
3905.852400  	-0.012960 
3907.781216  	-0.016933 
3909.710032  	-0.018897 
3911.638848  	-0.019167 
3913.567664  	-0.018796 
3915.496480  	-0.016758 
3917.425296  	-0.014446 
3919.354112  	-0.015027 
3921.282928  	-0.015990 
3923.211744  	-0.015344 
3925.140560  	-0.014660 
3927.069376  	-0.016891 
3928.998192  	-0.016973 
3930.927008  	-0.015130 
3932.855824  	-0.014620 
3934.784640  	-0.016750 
3936.713456  	-0.018167 
3938.642272  	-0.018211 
3940.571088  	-0.017664 
3942.499904  	-0.015479 
3944.428720  	-0.015830 
3946.357536  	-0.016855 
3948.286352  	-0.015430 
3950.215168  	-0.016044 
3952.143984  	-0.017817 
3954.072800  	-0.018505 
3956.001616  	-0.018281 
3957.930432  	-0.017869 
3959.859248  	-0.017513 
3961.788064  	-0.017179 
3963.716880  	-0.017806 
3965.645696  	-0.018764 
3967.574512  	-0.018783 
3969.503328  	-0.018454 
3971.432144  	-0.018282 
3973.360960  	-0.017865 
3975.289776  	-0.017348 
3977.218592  	-0.017852 
3979.147408  	-0.018599 
3981.076224  	-0.018687 
3983.005040  	-0.018678 
3984.933856  	-0.018707 
3986.862672  	-0.018648 
3988.791488  	-0.018424 
3990.720304  	-0.017940 
3992.649120  	-0.018162 
3994.577936  	-0.018291 
3996.506752  	-0.018549 
3998.435568  	-0.018905 
4000.364384  	-0.018870 