##TITLE=No Description
##DATA TYPE=INFRARED SPECTRUM
##XUNITS=1/CM
##YUNITS=Abs
399.264912  	0.599930 
401.193728  	0.598033 
403.122544  	0.606234 
405.051360  	0.606669 
406.980176  	0.610776 
408.908992  	0.603051 
410.837808  	0.601362 
412.766624  	0.603357 
414.695440  	0.603565 
416.624256  	0.598517 
418.553072  	0.616995 
420.481888  	0.603267 
422.410704  	0.593053 
424.339520  	0.587781 
426.268336  	0.577752 
428.197152  	0.564353 
430.125968  	0.569220 
432.054784  	0.568303 
433.983600  	0.564513 
435.912416  	0.559522 
437.841232  	0.560166 
439.770048  	0.559212 
441.698864  	0.564542 
443.627680  	0.562911 
445.556496  	0.562062 
447.485312  	0.554829 
449.414128  	0.553953 
451.342944  	0.554541 
453.271760  	0.553848 
455.200576  	0.550642 
457.129392  	0.558216 
459.058208  	0.554335 
460.987024  	0.553308 
462.915840  	0.554152 
464.844656  	0.550229 
466.773472  	0.546845 
468.702288  	0.551559 
470.631104  	0.558800 
472.559920  	0.561510 
474.488736  	0.553350 
476.417552  	0.552464 
478.346368  	0.548478 
480.275184  	0.549545 
482.204000  	0.548406 
484.132816  	0.545392 
486.061632  	0.544942 
487.990448  	0.549314 
489.919264  	0.550070 
491.848080  	0.547075 
493.776896  	0.543595 
495.705712  	0.544860 
497.634528  	0.541377 
499.563344  	0.539944 
501.492160  	0.538878 
503.420976  	0.536575 
505.349792  	0.532660 
507.278608  	0.535895 
509.207424  	0.538106 
511.136240  	0.539712 
513.065056  	0.540262 
514.993872  	0.543176 
516.922688  	0.545195 
518.851504  	0.548189 
520.780320  	0.546687 
522.709136  	0.545664 
524.637952  	0.545641 
526.566768  	0.544612 
528.495584  	0.538490 
530.424400  	0.534777 
532.353216  	0.529849 
534.282032  	0.524999 
536.210848  	0.519783 
538.139664  	0.513158 
540.068480  	0.506283 
541.997296  	0.502620 
543.926112  	0.499981 
545.854928  	0.497802 
547.783744  	0.494056 
549.712560  	0.491534 
551.641376  	0.486811 
553.570192  	0.483798 
555.499008  	0.480666 
557.427824  	0.477945 
559.356640  	0.475219 
561.285456  	0.471579 
563.214272  	0.466684 
565.143088  	0.463156 
567.071904  	0.459674 
569.000720  	0.457677 
570.929536  	0.453524 
572.858352  	0.450671 
574.787168  	0.448825 
576.715984  	0.445994 
578.644800  	0.440554 
580.573616  	0.435426 
582.502432  	0.429598 
584.431248  	0.425938 
586.360064  	0.421245 
588.288880  	0.417975 
590.217696  	0.416285 
592.146512  	0.415225 
594.075328  	0.412467 
596.004144  	0.410530 
597.932960  	0.409297 
599.861776  	0.408507 
601.790592  	0.405911 
603.719408  	0.404128 
605.648224  	0.402217 
607.577040  	0.400629 
609.505856  	0.398910 
611.434672  	0.397917 
613.363488  	0.396630 
615.292304  	0.396267 
617.221120  	0.394568 
619.149936  	0.392603 
621.078752  	0.390783 
623.007568  	0.390003 
624.936384  	0.389628 
626.865200  	0.388621 
628.794016  	0.387160 
630.722832  	0.386747 
632.651648  	0.387736 
634.580464  	0.388253 
636.509280  	0.388214 
638.438096  	0.388461 
640.366912  	0.387765 
642.295728  	0.386282 
644.224544  	0.383183 
646.153360  	0.379542 
648.082176  	0.375478 
650.010992  	0.372011 
651.939808  	0.368322 
653.868624  	0.364122 
655.797440  	0.359339 
657.726256  	0.354949 
659.655072  	0.350217 
661.583888  	0.345886 
663.512704  	0.341844 
665.441520  	0.337716 
667.370336  	0.333426 
669.299152  	0.328012 
671.227968  	0.322898 
673.156784  	0.318581 
675.085600  	0.315846 
677.014416  	0.312692 
678.943232  	0.309839 
680.872048  	0.308715 
682.800864  	0.307139 
684.729680  	0.305252 
686.658496  	0.303977 
688.587312  	0.302768 
690.516128  	0.301195 
692.444944  	0.299786 
694.373760  	0.298694 
696.302576  	0.297501 
698.231392  	0.295649 
700.160208  	0.293004 
702.089024  	0.290024 
704.017840  	0.287464 
705.946656  	0.284832 
707.875472  	0.282498 
709.804288  	0.280233 
711.733104  	0.278485 
713.661920  	0.276715 
715.590736  	0.275269 
717.519552  	0.274770 
719.448368  	0.275322 
721.377184  	0.276109 
723.306000  	0.276596 
725.234816  	0.277168 
727.163632  	0.276232 
729.092448  	0.273212 
731.021264  	0.269038 
732.950080  	0.264789 
734.878896  	0.260950 
736.807712  	0.257483 
738.736528  	0.254606 
740.665344  	0.252756 
742.594160  	0.251649 
744.522976  	0.249734 
746.451792  	0.247795 
748.380608  	0.246118 
750.309424  	0.244892 
752.238240  	0.243971 
754.167056  	0.243226 
756.095872  	0.242397 
758.024688  	0.241602 
759.953504  	0.241253 
761.882320  	0.242435 
763.811136  	0.243674 
765.739952  	0.241729 
767.668768  	0.237816 
769.597584  	0.234955 
771.526400  	0.234200 
773.455216  	0.236021 
775.384032  	0.240591 
777.312848  	0.247248 
779.241664  	0.252146 
781.170480  	0.251004 
783.099296  	0.244929 
785.028112  	0.237564 
786.956928  	0.230646 
788.885744  	0.225210 
790.814560  	0.221380 
792.743376  	0.219414 
794.672192  	0.218909 
796.601008  	0.217502 
798.529824  	0.213670 
800.458640  	0.208647 
802.387456  	0.204566 
804.316272  	0.202288 
806.245088  	0.201423 
808.173904  	0.200849 
810.102720  	0.200324 
812.031536  	0.200365 
813.960352  	0.200870 
815.889168  	0.201467 
817.817984  	0.202338 
819.746800  	0.203718 
821.675616  	0.205106 
823.604432  	0.206027 
825.533248  	0.207061 
827.462064  	0.207809 
829.390880  	0.207556 
831.319696  	0.206872 
833.248512  	0.205449 
835.177328  	0.203347 
837.106144  	0.200350 
839.034960  	0.196531 
840.963776  	0.191714 
842.892592  	0.186949 
844.821408  	0.182129 
846.750224  	0.177565 
848.679040  	0.174148 
850.607856  	0.171492 
852.536672  	0.169718 
854.465488  	0.168324 
856.394304  	0.167129 
858.323120  	0.165762 
860.251936  	0.164191 
862.180752  	0.162387 
864.109568  	0.160328 
866.038384  	0.157835 
867.967200  	0.155388 
869.896016  	0.153421 
871.824832  	0.152297 
873.753648  	0.152531 
875.682464  	0.153664 
877.611280  	0.155722 
879.540096  	0.158686 
881.468912  	0.161671 
883.397728  	0.164669 
885.326544  	0.167343 
887.255360  	0.168890 
889.184176  	0.169209 
891.112992  	0.168645 
893.041808  	0.167083 
894.970624  	0.164098 
896.899440  	0.159244 
898.828256  	0.153550 
900.757072  	0.147920 
902.685888  	0.142924 
904.614704  	0.139769 
906.543520  	0.139107 
908.472336  	0.140730 
910.401152  	0.143725 
912.329968  	0.147140 
914.258784  	0.150711 
916.187600  	0.154273 
918.116416  	0.157400 
920.045232  	0.159582 
921.974048  	0.161093 
923.902864  	0.162574 
925.831680  	0.163881 
927.760496  	0.165544 
929.689312  	0.167377 
931.618128  	0.169377 
933.546944  	0.170969 
935.475760  	0.171876 
937.404576  	0.171888 
939.333392  	0.171215 
941.262208  	0.170925 
943.191024  	0.172061 
945.119840  	0.175975 
947.048656  	0.182846 
948.977472  	0.193109 
950.906288  	0.206230 
952.835104  	0.222362 
954.763920  	0.241031 
956.692736  	0.259837 
958.621552  	0.276956 
960.550368  	0.289989 
962.479184  	0.297670 
964.408000  	0.298502 
966.336816  	0.292960 
968.265632  	0.281442 
970.194448  	0.265463 
972.123264  	0.246531 
974.052080  	0.226628 
975.980896  	0.207272 
977.909712  	0.189511 
979.838528  	0.173899 
981.767344  	0.161085 
983.696160  	0.151640 
985.624976  	0.145839 
987.553792  	0.144072 
989.482608  	0.146260 
991.411424  	0.152052 
993.340240  	0.160589 
995.269056  	0.170526 
997.197872  	0.181171 
999.126688  	0.191690 
1001.055504  	0.202549 
1002.984320  	0.213270 
1004.913136  	0.223615 
1006.841952  	0.233586 
1008.770768  	0.242950 
1010.699584  	0.250870 
1012.628400  	0.257016 
1014.557216  	0.261385 
1016.486032  	0.263723 
1018.414848  	0.264621 
1020.343664  	0.265428 
1022.272480  	0.265963 
1024.201296  	0.266276 
1026.130112  	0.266584 
1028.058928  	0.268078 
1029.987744  	0.271142 
1031.916560  	0.275592 
1033.845376  	0.281458 
1035.774192  	0.289146 
1037.703008  	0.299189 
1039.631824  	0.313097 
1041.560640  	0.331392 
1043.489456  	0.354427 
1045.418272  	0.379607 
1047.347088  	0.403613 
1049.275904  	0.420527 
1051.204720  	0.428914 
1053.133536  	0.429199 
1055.062352  	0.425119 
1056.991168  	0.418474 
1058.919984  	0.412798 
1060.848800  	0.408409 
1062.777616  	0.404887 
1064.706432  	0.400383 
1066.635248  	0.395335 
1068.564064  	0.387602 
1070.492880  	0.377988 
1072.421696  	0.368620 
1074.350512  	0.362903 
1076.279328  	0.361991 
1078.208144  	0.366282 
1080.136960  	0.372078 
1082.065776  	0.375562 
1083.994592  	0.372623 
1085.923408  	0.364017 
1087.852224  	0.350135 
1089.781040  	0.334108 
1091.709856  	0.316323 
1093.638672  	0.297377 
1095.567488  	0.277712 
1097.496304  	0.258712 
1099.425120  	0.240459 
1101.353936  	0.223276 
1103.282752  	0.207323 
1105.211568  	0.192334 
1107.140384  	0.178942 
1109.069200  	0.167066 
1110.998016  	0.156282 
1112.926832  	0.146559 
1114.855648  	0.137869 
1116.784464  	0.129232 
1118.713280  	0.120927 
1120.642096  	0.113005 
1122.570912  	0.105542 
1124.499728  	0.098837 
1126.428544  	0.093038 
1128.357360  	0.087748 
1130.286176  	0.083457 
1132.214992  	0.079892 
1134.143808  	0.077236 
1136.072624  	0.075109 
1138.001440  	0.073189 
1139.930256  	0.071523 
1141.859072  	0.070045 
1143.787888  	0.068239 
1145.716704  	0.066732 
1147.645520  	0.065600 
1149.574336  	0.065239 
1151.503152  	0.064868 
1153.431968  	0.064909 
1155.360784  	0.065404 
1157.289600  	0.066708 
1159.218416  	0.068173 
1161.147232  	0.069998 
1163.076048  	0.072216 
1165.004864  	0.074535 
1166.933680  	0.076364 
1168.862496  	0.078561 
1170.791312  	0.081267 
1172.720128  	0.084726 
1174.648944  	0.088525 
1176.577760  	0.092123 
1178.506576  	0.095798 
1180.435392  	0.100016 
1182.364208  	0.104193 
1184.293024  	0.108970 
1186.221840  	0.114536 
1188.150656  	0.120756 
1190.079472  	0.127834 
1192.008288  	0.136261 
1193.937104  	0.145943 
1195.865920  	0.156892 
1197.794736  	0.168505 
1199.723552  	0.180857 
1201.652368  	0.193401 
1203.581184  	0.205284 
1205.510000  	0.216618 
1207.438816  	0.226826 
1209.367632  	0.235403 
1211.296448  	0.242318 
1213.225264  	0.247436 
1215.154080  	0.250339 
1217.082896  	0.251710 
1219.011712  	0.251109 
1220.940528  	0.249218 
1222.869344  	0.246391 
1224.798160  	0.243070 
1226.726976  	0.238432 
1228.655792  	0.233040 
1230.584608  	0.226875 
1232.513424  	0.219932 
1234.442240  	0.212485 
1236.371056  	0.204747 
1238.299872  	0.196165 
1240.228688  	0.186900 
1242.157504  	0.177729 
1244.086320  	0.169014 
1246.015136  	0.160302 
1247.943952  	0.151911 
1249.872768  	0.143698 
1251.801584  	0.135945 
1253.730400  	0.128494 
1255.659216  	0.121194 
1257.588032  	0.114419 
1259.516848  	0.108351 
1261.445664  	0.102375 
1263.374480  	0.096776 
1265.303296  	0.092363 
1267.232112  	0.089038 
1269.160928  	0.086797 
1271.089744  	0.085306 
1273.018560  	0.084496 
1274.947376  	0.084701 
1276.876192  	0.085840 
1278.805008  	0.086795 
1280.733824  	0.086715 
1282.662640  	0.084942 
1284.591456  	0.082670 
1286.520272  	0.081056 
1288.449088  	0.080383 
1290.377904  	0.080249 
1292.306720  	0.081403 
1294.235536  	0.082615 
1296.164352  	0.082749 
1298.093168  	0.080566 
1300.021984  	0.077364 
1301.950800  	0.073795 
1303.879616  	0.070043 
1305.808432  	0.066080 
1307.737248  	0.062181 
1309.666064  	0.058179 
1311.594880  	0.055946 
1313.523696  	0.054399 
1315.452512  	0.052917 
1317.381328  	0.052880 
1319.310144  	0.053163 
1321.238960  	0.052702 
1323.167776  	0.053098 
1325.096592  	0.053956 
1327.025408  	0.054501 
1328.954224  	0.054314 
1330.883040  	0.053337 
1332.811856  	0.051588 
1334.740672  	0.050818 
1336.669488  	0.052119 
1338.598304  	0.054849 
1340.527120  	0.053350 
1342.455936  	0.048878 
1344.384752  	0.047653 
1346.313568  	0.048226 
1348.242384  	0.049480 
1350.171200  	0.051005 
1352.100016  	0.052825 
1354.028832  	0.055746 
1355.957648  	0.058454 
1357.886464  	0.060835 
1359.815280  	0.064592 
1361.744096  	0.070490 
1363.672912  	0.072878 
1365.601728  	0.072282 
1367.530544  	0.074976 
1369.459360  	0.077516 
1371.388176  	0.078763 
1373.316992  	0.081079 
1375.245808  	0.079253 
1377.174624  	0.074722 
1379.103440  	0.071229 
1381.032256  	0.067195 
1382.961072  	0.063947 
1384.889888  	0.063068 
1386.818704  	0.063863 
1388.747520  	0.059987 
1390.676336  	0.055818 
1392.605152  	0.054798 
1394.533968  	0.056440 
1396.462784  	0.056847 
1398.391600  	0.056183 
1400.320416  	0.053678 
1402.249232  	0.052444 
1404.178048  	0.054935 
1406.106864  	0.055536 
1408.035680  	0.055709 
1409.964496  	0.058199 
1411.893312  	0.060864 
1413.822128  	0.063149 
1415.750944  	0.068238 
1417.679760  	0.074296 
1419.608576  	0.074524 
1421.537392  	0.071025 
1423.466208  	0.071028 
1425.395024  	0.067728 
1427.323840  	0.064287 
1429.252656  	0.062763 
1431.181472  	0.060248 
1433.110288  	0.058813 
1435.039104  	0.060839 
1436.967920  	0.063130 
1438.896736  	0.061487 
1440.825552  	0.061402 
1442.754368  	0.062250 
1444.683184  	0.062959 
1446.612000  	0.064886 
1448.540816  	0.065587 
1450.469632  	0.065101 
1452.398448  	0.066329 
1454.327264  	0.069304 
1456.256080  	0.075562 
1458.184896  	0.074797 
1460.113712  	0.067283 
1462.042528  	0.064354 
1463.971344  	0.065451 
1465.900160  	0.065568 
1467.828976  	0.064799 
1469.757792  	0.067516 
1471.686608  	0.076023 
1473.615424  	0.085287 
1475.544240  	0.088045 
1477.473056  	0.091105 
1479.401872  	0.094209 
1481.330688  	0.099139 
1483.259504  	0.101682 
1485.188320  	0.105025 
1487.117136  	0.109906 
1489.045952  	0.114746 
1490.974768  	0.109264 
1492.903584  	0.101560 
1494.832400  	0.098320 
1496.761216  	0.094192 
1498.690032  	0.085575 
1500.618848  	0.077792 
1502.547664  	0.071940 
1504.476480  	0.070373 
1506.405296  	0.077629 
1508.334112  	0.075569 
1510.262928  	0.066246 
1512.191744  	0.060855 
1514.120560  	0.060308 
1516.049376  	0.065223 
1517.978192  	0.066882 
1519.907008  	0.069271 
1521.835824  	0.076599 
1523.764640  	0.077503 
1525.693456  	0.081186 
1527.622272  	0.082219 
1529.551088  	0.079749 
1531.479904  	0.079466 
1533.408720  	0.079131 
1535.337536  	0.072595 
1537.266352  	0.070517 
1539.195168  	0.073216 
1541.123984  	0.071992 
1543.052800  	0.068058 
1544.981616  	0.063245 
1546.910432  	0.056477 
1548.839248  	0.056702 
1550.768064  	0.057826 
1552.696880  	0.056880 
1554.625696  	0.059853 
1556.554512  	0.062201 
1558.483328  	0.070549 
1560.412144  	0.067938 
1562.340960  	0.065549 
1564.269776  	0.068093 
1566.198592  	0.072694 
1568.127408  	0.077732 
1570.056224  	0.085681 
1571.985040  	0.088743 
1573.913856  	0.093220 
1575.842672  	0.099287 
1577.771488  	0.100984 
1579.700304  	0.098176 
1581.629120  	0.096737 
1583.557936  	0.095806 
1585.486752  	0.096716 
1587.415568  	0.099440 
1589.344384  	0.105166 
1591.273200  	0.112104 
1593.202016  	0.120911 
1595.130832  	0.130297 
1597.059648  	0.139106 
1598.988464  	0.146815 
1600.917280  	0.155301 
1602.846096  	0.161376 
1604.774912  	0.165023 
1606.703728  	0.166717 
1608.632544  	0.167215 
1610.561360  	0.164612 
1612.490176  	0.162606 
1614.418992  	0.162057 
1616.347808  	0.164157 
1618.276624  	0.164369 
1620.205440  	0.167165 
1622.134256  	0.172689 
1624.063072  	0.181011 
1625.991888  	0.187049 
1627.920704  	0.196364 
1629.849520  	0.205429 
1631.778336  	0.215043 
1633.707152  	0.224771 
1635.635968  	0.239258 
1637.564784  	0.247274 
1639.493600  	0.250587 
1641.422416  	0.254093 
1643.351232  	0.258441 
1645.280048  	0.262536 
1647.208864  	0.267013 
1649.137680  	0.262909 
1651.066496  	0.262520 
1652.995312  	0.262694 
1654.924128  	0.255938 
1656.852944  	0.249541 
1658.781760  	0.245108 
1660.710576  	0.242041 
1662.639392  	0.237849 
1664.568208  	0.229464 
1666.497024  	0.224977 
1668.425840  	0.221681 
1670.354656  	0.213709 
1672.283472  	0.205479 
1674.212288  	0.200680 
1676.141104  	0.193469 
1678.069920  	0.189756 
1679.998736  	0.189902 
1681.927552  	0.190153 
1683.856368  	0.190700 
1685.785184  	0.184632 
1687.714000  	0.182170 
1689.642816  	0.180506 
1691.571632  	0.176845 
1693.500448  	0.176346 
1695.429264  	0.178410 
1697.358080  	0.179770 
1699.286896  	0.178237 
1701.215712  	0.173111 
1703.144528  	0.169472 
1705.073344  	0.167227 
1707.002160  	0.160412 
1708.930976  	0.153399 
1710.859792  	0.146623 
1712.788608  	0.140740 
1714.717424  	0.135224 
1716.646240  	0.126546 
1718.575056  	0.106981 
1720.503872  	0.090740 
1722.432688  	0.080330 
1724.361504  	0.068023 
1726.290320  	0.057272 
1728.219136  	0.050619 
1730.147952  	0.046472 
1732.076768  	0.042499 
1734.005584  	0.038590 
1735.934400  	0.028845 
1737.863216  	0.025954 
1739.792032  	0.023184 
1741.720848  	0.021094 
1743.649664  	0.020853 
1745.578480  	0.019349 
1747.507296  	0.019332 
1749.436112  	0.019878 
1751.364928  	0.016400 
1753.293744  	0.011414 
1755.222560  	0.009973 
1757.151376  	0.011016 
1759.080192  	0.009423 
1761.009008  	0.009544 
1762.937824  	0.007813 
1764.866640  	0.005849 
1766.795456  	0.006876 
1768.724272  	0.008577 
1770.653088  	0.008825 
1772.581904  	0.009419 
1774.510720  	0.006923 
1776.439536  	0.005377 
1778.368352  	0.004392 
1780.297168  	0.005269 
1782.225984  	0.003839 
1784.154800  	0.003506 
1786.083616  	0.002590 
1788.012432  	0.002147 
1789.941248  	0.004416 
1791.870064  	0.007190 
1793.798880  	0.004792 
1795.727696  	0.003819 
1797.656512  	0.002716 
1799.585328  	0.003007 
1801.514144  	0.003578 
1803.442960  	0.001950 
1805.371776  	0.000443 
1807.300592  	0.000775 
1809.229408  	0.001070 
1811.158224  	0.001492 
1813.087040  	-0.000186 
1815.015856  	-0.001297 
1816.944672  	-0.000640 
1818.873488  	-0.000400 
1820.802304  	-0.000718 
1822.731120  	0.000434 
1824.659936  	0.001450 
1826.588752  	0.001020 
1828.517568  	0.001486 
1830.446384  	0.001890 
1832.375200  	-0.000738 
1834.304016  	-0.001125 
1836.232832  	-0.000892 
1838.161648  	-0.000608 
1840.090464  	-0.001142 
1842.019280  	0.000374 
1843.948096  	0.002142 
1845.876912  	0.001673 
1847.805728  	0.000154 
1849.734544  	-0.001386 
1851.663360  	-0.002465 
1853.592176  	-0.002025 
1855.520992  	-0.002224 
1857.449808  	-0.001919 
1859.378624  	-0.001951 
1861.307440  	-0.001682 
1863.236256  	-0.002265 
1865.165072  	-0.001485 
1867.093888  	0.000703 
1869.022704  	0.002561 
1870.951520  	-0.000305 
1872.880336  	-0.002213 
1874.809152  	-0.002995 
1876.737968  	-0.002874 
1878.666784  	-0.003163 
1880.595600  	-0.003383 
1882.524416  	-0.003360 
1884.453232  	-0.002767 
1886.382048  	-0.003073 
1888.310864  	-0.001637 
1890.239680  	-0.001204 
1892.168496  	-0.001995 
1894.097312  	-0.001909 
1896.026128  	-0.001960 
1897.954944  	-0.002902 
1899.883760  	-0.002862 
1901.812576  	-0.003325 
1903.741392  	-0.003161 
1905.670208  	-0.003431 
1907.599024  	-0.002672 
1909.527840  	-0.002025 
1911.456656  	-0.001957 
1913.385472  	-0.002473 
1915.314288  	-0.001837 
1917.243104  	-0.001021 
1919.171920  	-0.000944 
1921.100736  	-0.001492 
1923.029552  	-0.000620 
1924.958368  	-0.003088 
1926.887184  	-0.003596 
1928.816000  	-0.003927 
1930.744816  	-0.003573 
1932.673632  	-0.003454 
1934.602448  	-0.002816 
1936.531264  	-0.003153 
1938.460080  	-0.002926 
1940.388896  	-0.002437 
1942.317712  	-0.000434 
1944.246528  	-0.001894 
1946.175344  	-0.002421 
1948.104160  	-0.003003 
1950.032976  	-0.002737 
1951.961792  	-0.003655 
1953.890608  	-0.003705 
1955.819424  	-0.004123 
1957.748240  	-0.003727 
1959.677056  	-0.004203 
1961.605872  	-0.003628 
1963.534688  	-0.004045 
1965.463504  	-0.002399 
1967.392320  	-0.002646 
1969.321136  	-0.003280 
1971.249952  	-0.004001 
1973.178768  	-0.003566 
1975.107584  	-0.003891 
1977.036400  	-0.002074 
1978.965216  	-0.002779 
1980.894032  	-0.003612 
1982.822848  	-0.004315 
1984.751664  	-0.003112 
1986.680480  	-0.002336 
1988.609296  	-0.001085 
1990.538112  	-0.001046 
1992.466928  	0.000152 
1994.395744  	-0.002331 
1996.324560  	-0.003132 
1998.253376  	-0.003361 
2000.182192  	-0.003158 
2002.111008  	-0.003783 
2004.039824  	-0.002653 
2005.968640  	-0.003467 
2007.897456  	-0.003425 
2009.826272  	-0.003203 
2011.755088  	-0.001724 
2013.683904  	-0.001856 
2015.612720  	-0.001173 
2017.541536  	-0.001288 
2019.470352  	-0.000663 
2021.399168  	-0.001245 
2023.327984  	-0.001102 
2025.256800  	-0.002322 
2027.185616  	-0.000522 
2029.114432  	0.000313 
2031.043248  	0.000209 
2032.972064  	-0.000781 
2034.900880  	-0.000753 
2036.829696  	-0.001069 
2038.758512  	-0.000251 
2040.687328  	-0.001090 
2042.616144  	-0.000698 
2044.544960  	-0.000980 
2046.473776  	-0.000589 
2048.402592  	-0.000283 
2050.331408  	0.000365 
2052.260224  	0.000053 
2054.189040  	0.000174 
2056.117856  	-0.000392 
2058.046672  	0.000095 
2059.975488  	-0.000276 
2061.904304  	0.000109 
2063.833120  	0.000397 
2065.761936  	0.000633 
2067.690752  	0.000021 
2069.619568  	0.000059 
2071.548384  	-0.000502 
2073.477200  	-0.000071 
2075.406016  	0.000105 
2077.334832  	0.000288 
2079.263648  	0.000724 
2081.192464  	0.001406 
2083.121280  	0.000677 
2085.050096  	0.000408 
2086.978912  	0.000541 
2088.907728  	0.001283 
2090.836544  	0.001264 
2092.765360  	0.000846 
2094.694176  	0.000709 
2096.622992  	0.001352 
2098.551808  	0.001224 
2100.480624  	0.001624 
2102.409440  	0.001434 
2104.338256  	0.001233 
2106.267072  	0.001001 
2108.195888  	0.001271 
2110.124704  	0.001049 
2112.053520  	0.001421 
2113.982336  	0.001764 
2115.911152  	0.001606 
2117.839968  	0.000899 
2119.768784  	0.000991 
2121.697600  	0.001089 
2123.626416  	0.000729 
2125.555232  	0.000147 
2127.484048  	0.000317 
2129.412864  	0.000279 
2131.341680  	0.000816 
2133.270496  	0.001065 
2135.199312  	0.001383 
2137.128128  	0.001672 
2139.056944  	0.002461 
2140.985760  	0.001638 
2142.914576  	0.001856 
2144.843392  	0.001221 
2146.772208  	0.001493 
2148.701024  	0.001694 
2150.629840  	0.001955 
2152.558656  	0.001844 
2154.487472  	0.002122 
2156.416288  	0.001700 
2158.345104  	0.004850 
2160.273920  	0.007015 
2162.202736  	0.006861 
2164.131552  	0.005167 
2166.060368  	0.005466 
2167.989184  	0.004375 
2169.918000  	0.002769 
2171.846816  	0.002164 
2173.775632  	0.003390 
2175.704448  	0.002894 
2177.633264  	0.003226 
2179.562080  	0.002616 
2181.490896  	0.002886 
2183.419712  	0.003048 
2185.348528  	0.003458 
2187.277344  	0.002516 
2189.206160  	0.002596 
2191.134976  	0.002549 
2193.063792  	0.002356 
2194.992608  	0.001752 
2196.921424  	0.001647 
2198.850240  	0.000941 
2200.779056  	0.001106 
2202.707872  	0.001176 
2204.636688  	0.001474 
2206.565504  	0.000660 
2208.494320  	0.000820 
2210.423136  	0.000796 
2212.351952  	0.000965 
2214.280768  	0.000938 
2216.209584  	0.000894 
2218.138400  	-0.000254 
2220.067216  	-0.000656 
2221.996032  	-0.000699 
2223.924848  	-0.000095 
2225.853664  	0.000191 
2227.782480  	0.000877 
2229.711296  	-0.000065 
2231.640112  	-0.000255 
2233.568928  	-0.000450 
2235.497744  	-0.000437 
2237.426560  	-0.000301 
2239.355376  	0.000014 
2241.284192  	-0.000501 
2243.213008  	-0.000785 
2245.141824  	-0.000983 
2247.070640  	-0.000688 
2248.999456  	-0.000531 
2250.928272  	-0.000475 
2252.857088  	-0.001322 
2254.785904  	-0.001027 
2256.714720  	-0.000146 
2258.643536  	-0.000003 
2260.572352  	-0.000637 
2262.501168  	-0.000658 
2264.429984  	-0.000011 
2266.358800  	0.000542 
2268.287616  	0.000074 
2270.216432  	-0.000154 
2272.145248  	-0.000229 
2274.074064  	0.000211 
2276.002880  	0.000125 
2277.931696  	0.000331 
2279.860512  	0.000239 
2281.789328  	0.000351 
2283.718144  	0.000533 
2285.646960  	0.000968 
2287.575776  	0.001104 
2289.504592  	0.001068 
2291.433408  	0.001061 
2293.362224  	0.001329 
2295.291040  	0.001399 
2297.219856  	0.001967 
2299.148672  	0.002354 
2301.077488  	0.002600 
2303.006304  	0.002991 
2304.935120  	0.003675 
2306.863936  	0.003964 
2308.792752  	0.004257 
2310.721568  	0.004247 
2312.650384  	0.003852 
2314.579200  	0.003093 
2316.508016  	0.003081 
2318.436832  	0.003223 
2320.365648  	0.003107 
2322.294464  	0.002403 
2324.223280  	0.001157 
2326.152096  	-0.000893 
2328.080912  	-0.002353 
2330.009728  	-0.003084 
2331.938544  	-0.004056 
2333.867360  	-0.005398 
2335.796176  	-0.006144 
2337.724992  	-0.006736 
2339.653808  	-0.006734 
2341.582624  	-0.006369 
2343.511440  	-0.005244 
2345.440256  	-0.003174 
2347.369072  	-0.000868 
2349.297888  	-0.000174 
2351.226704  	-0.001824 
2353.155520  	-0.004771 
2355.084336  	-0.006784 
2357.013152  	-0.007969 
2358.941968  	-0.008217 
2360.870784  	-0.008927 
2362.799600  	-0.008790 
2364.728416  	-0.007402 
2366.657232  	-0.005920 
2368.586048  	-0.004429 
2370.514864  	-0.002615 
2372.443680  	-0.001137 
2374.372496  	0.000662 
2376.301312  	0.001910 
2378.230128  	0.002517 
2380.158944  	0.002587 
2382.087760  	0.002410 
2384.016576  	0.001512 
2385.945392  	0.000638 
2387.874208  	0.000031 
2389.803024  	-0.000262 
2391.731840  	-0.000383 
2393.660656  	-0.000470 
2395.589472  	-0.000582 
2397.518288  	-0.000507 
2399.447104  	-0.000485 
2401.375920  	-0.000440 
2403.304736  	-0.000652 
2405.233552  	-0.000601 
2407.162368  	-0.000403 
2409.091184  	-0.000322 
2411.020000  	-0.000403 
2412.948816  	-0.000460 
2414.877632  	-0.000507 
2416.806448  	-0.000334 
2418.735264  	-0.000310 
2420.664080  	-0.000260 
2422.592896  	-0.000245 
2424.521712  	-0.000058 
2426.450528  	-0.000020 
2428.379344  	0.000126 
2430.308160  	0.000280 
2432.236976  	0.000380 
2434.165792  	0.000444 
2436.094608  	0.000705 
2438.023424  	0.000911 
2439.952240  	0.000998 
2441.881056  	0.000963 
2443.809872  	0.000955 
2445.738688  	0.000761 
2447.667504  	0.000852 
2449.596320  	0.001253 
2451.525136  	0.001650 
2453.453952  	0.001750 
2455.382768  	0.001780 
2457.311584  	0.001682 
2459.240400  	0.001615 
2461.169216  	0.001914 
2463.098032  	0.002305 
2465.026848  	0.002278 
2466.955664  	0.002117 
2468.884480  	0.001855 
2470.813296  	0.001867 
2472.742112  	0.002095 
2474.670928  	0.002406 
2476.599744  	0.002637 
2478.528560  	0.003099 
2480.457376  	0.003319 
2482.386192  	0.003364 
2484.315008  	0.003180 
2486.243824  	0.003196 
2488.172640  	0.003429 
2490.101456  	0.003793 
2492.030272  	0.004081 
2493.959088  	0.004071 
2495.887904  	0.003924 
2497.816720  	0.004212 
2499.745536  	0.004301 
2501.674352  	0.004236 
2503.603168  	0.004305 
2505.531984  	0.004613 
2507.460800  	0.004580 
2509.389616  	0.004522 
2511.318432  	0.004632 
2513.247248  	0.005039 
2515.176064  	0.005241 
2517.104880  	0.005102 
2519.033696  	0.004898 
2520.962512  	0.005110 
2522.891328  	0.005197 
2524.820144  	0.005460 
2526.748960  	0.005471 
2528.677776  	0.005733 
2530.606592  	0.005970 
2532.535408  	0.005990 
2534.464224  	0.005882 
2536.393040  	0.005870 
2538.321856  	0.006017 
2540.250672  	0.006153 
2542.179488  	0.006364 
2544.108304  	0.006604 
2546.037120  	0.006917 
2547.965936  	0.007327 
2549.894752  	0.007421 
2551.823568  	0.007524 
2553.752384  	0.007571 
2555.681200  	0.007581 
2557.610016  	0.007650 
2559.538832  	0.007745 
2561.467648  	0.007886 
2563.396464  	0.008208 
2565.325280  	0.008274 
2567.254096  	0.008274 
2569.182912  	0.008319 
2571.111728  	0.008475 
2573.040544  	0.008598 
2574.969360  	0.009000 
2576.898176  	0.009301 
2578.826992  	0.009385 
2580.755808  	0.009369 
2582.684624  	0.009510 
2584.613440  	0.009534 
2586.542256  	0.009656 
2588.471072  	0.009618 
2590.399888  	0.009706 
2592.328704  	0.009999 
2594.257520  	0.010446 
2596.186336  	0.010498 
2598.115152  	0.010539 
2600.043968  	0.010714 
2601.972784  	0.010964 
2603.901600  	0.011171 
2605.830416  	0.011081 
2607.759232  	0.011030 
2609.688048  	0.011203 
2611.616864  	0.011478 
2613.545680  	0.011779 
2615.474496  	0.011894 
2617.403312  	0.012163 
2619.332128  	0.012377 
2621.260944  	0.012394 
2623.189760  	0.012537 
2625.118576  	0.012853 
2627.047392  	0.012988 
2628.976208  	0.013256 
2630.905024  	0.013522 
2632.833840  	0.013676 
2634.762656  	0.013692 
2636.691472  	0.013936 
2638.620288  	0.014227 
2640.549104  	0.014597 
2642.477920  	0.014847 
2644.406736  	0.014901 
2646.335552  	0.015081 
2648.264368  	0.015360 
2650.193184  	0.015599 
2652.122000  	0.015818 
2654.050816  	0.016018 
2655.979632  	0.016238 
2657.908448  	0.016466 
2659.837264  	0.016739 
2661.766080  	0.016903 
2663.694896  	0.017046 
2665.623712  	0.017259 
2667.552528  	0.017609 
2669.481344  	0.017785 
2671.410160  	0.017904 
2673.338976  	0.018184 
2675.267792  	0.018477 
2677.196608  	0.018727 
2679.125424  	0.018915 
2681.054240  	0.019085 
2682.983056  	0.019368 
2684.911872  	0.019521 
2686.840688  	0.019703 
2688.769504  	0.019950 
2690.698320  	0.020195 
2692.627136  	0.020329 
2694.555952  	0.020504 
2696.484768  	0.020757 
2698.413584  	0.020943 
2700.342400  	0.020971 
2702.271216  	0.021184 
2704.200032  	0.021455 
2706.128848  	0.021788 
2708.057664  	0.021981 
2709.986480  	0.022091 
2711.915296  	0.022252 
2713.844112  	0.022486 
2715.772928  	0.022707 
2717.701744  	0.022878 
2719.630560  	0.023125 
2721.559376  	0.023438 
2723.488192  	0.023729 
2725.417008  	0.023969 
2727.345824  	0.024192 
2729.274640  	0.024555 
2731.203456  	0.024740 
2733.132272  	0.024828 
2735.061088  	0.025020 
2736.989904  	0.025263 
2738.918720  	0.025533 
2740.847536  	0.025701 
2742.776352  	0.025932 
2744.705168  	0.026175 
2746.633984  	0.026309 
2748.562800  	0.026499 
2750.491616  	0.026610 
2752.420432  	0.026698 
2754.349248  	0.026830 
2756.278064  	0.026939 
2758.206880  	0.026933 
2760.135696  	0.026969 
2762.064512  	0.027091 
2763.993328  	0.027144 
2765.922144  	0.027082 
2767.850960  	0.027117 
2769.779776  	0.027199 
2771.708592  	0.027309 
2773.637408  	0.027328 
2775.566224  	0.027369 
2777.495040  	0.027355 
2779.423856  	0.027357 
2781.352672  	0.027475 
2783.281488  	0.027561 
2785.210304  	0.027493 
2787.139120  	0.027544 
2789.067936  	0.027600 
2790.996752  	0.027611 
2792.925568  	0.027588 
2794.854384  	0.027719 
2796.783200  	0.027887 
2798.712016  	0.027870 
2800.640832  	0.027862 
2802.569648  	0.027991 
2804.498464  	0.028076 
2806.427280  	0.028222 
2808.356096  	0.028323 
2810.284912  	0.028324 
2812.213728  	0.028347 
2814.142544  	0.028425 
2816.071360  	0.028417 
2818.000176  	0.028499 
2819.928992  	0.028730 
2821.857808  	0.028846 
2823.786624  	0.028827 
2825.715440  	0.028980 
2827.644256  	0.029023 
2829.573072  	0.028975 
2831.501888  	0.029039 
2833.430704  	0.029124 
2835.359520  	0.029091 
2837.288336  	0.029068 
2839.217152  	0.029190 
2841.145968  	0.029297 
2843.074784  	0.029365 
2845.003600  	0.029609 
2846.932416  	0.029934 
2848.861232  	0.030456 
2850.790048  	0.030776 
2852.718864  	0.030755 
2854.647680  	0.030658 
2856.576496  	0.030847 
2858.505312  	0.031029 
2860.434128  	0.031141 
2862.362944  	0.031326 
2864.291760  	0.031453 
2866.220576  	0.031552 
2868.149392  	0.031696 
2870.078208  	0.032005 
2872.007024  	0.032615 
2873.935840  	0.033268 
2875.864656  	0.033774 
2877.793472  	0.034163 
2879.722288  	0.034688 
2881.651104  	0.035358 
2883.579920  	0.036054 
2885.508736  	0.036570 
2887.437552  	0.036879 
2889.366368  	0.037009 
2891.295184  	0.037113 
2893.224000  	0.037186 
2895.152816  	0.037320 
2897.081632  	0.037355 
2899.010448  	0.037161 
2900.939264  	0.036863 
2902.868080  	0.037069 
2904.796896  	0.037548 
2906.725712  	0.037954 
2908.654528  	0.038316 
2910.583344  	0.038891 
2912.512160  	0.039549 
2914.440976  	0.040380 
2916.369792  	0.041418 
2918.298608  	0.042247 
2920.227424  	0.042716 
2922.156240  	0.043170 
2924.085056  	0.043861 
2926.013872  	0.044519 
2927.942688  	0.045193 
2929.871504  	0.046058 
2931.800320  	0.046867 
2933.729136  	0.047851 
2935.657952  	0.048674 
2937.586768  	0.049296 
2939.515584  	0.049911 
2941.444400  	0.050402 
2943.373216  	0.050778 
2945.302032  	0.051243 
2947.230848  	0.051592 
2949.159664  	0.051561 
2951.088480  	0.051364 
2953.017296  	0.051350 
2954.946112  	0.051178 
2956.874928  	0.050808 
2958.803744  	0.050483 
2960.732560  	0.050226 
2962.661376  	0.049880 
2964.590192  	0.049587 
2966.519008  	0.049221 
2968.447824  	0.048713 
2970.376640  	0.048233 
2972.305456  	0.047868 
2974.234272  	0.047956 
2976.163088  	0.047932 
2978.091904  	0.047640 
2980.020720  	0.047478 
2981.949536  	0.047324 
2983.878352  	0.047182 
2985.807168  	0.047053 
2987.735984  	0.047050 
2989.664800  	0.047191 
2991.593616  	0.047855 
2993.522432  	0.048351 
2995.451248  	0.048577 
2997.380064  	0.048935 
2999.308880  	0.049389 
3001.237696  	0.049968 
3003.166512  	0.050761 
3005.095328  	0.051462 
3007.024144  	0.052069 
3008.952960  	0.052907 
3010.881776  	0.053928 
3012.810592  	0.054850 
3014.739408  	0.055431 
3016.668224  	0.055918 
3018.597040  	0.056524 
3020.525856  	0.057287 
3022.454672  	0.057948 
3024.383488  	0.058546 
3026.312304  	0.059438 
3028.241120  	0.060262 
3030.169936  	0.061297 
3032.098752  	0.062279 
3034.027568  	0.062796 
3035.956384  	0.063481 
3037.885200  	0.064199 
3039.814016  	0.065025 
3041.742832  	0.065824 
3043.671648  	0.066640 
3045.600464  	0.067374 
3047.529280  	0.068249 
3049.458096  	0.069431 
3051.386912  	0.070074 
3053.315728  	0.070634 
3055.244544  	0.071786 
3057.173360  	0.072950 
3059.102176  	0.073892 
3061.030992  	0.074914 
3062.959808  	0.076018 
3064.888624  	0.077375 
3066.817440  	0.078659 
3068.746256  	0.079785 
3070.675072  	0.080897 
3072.603888  	0.082064 
3074.532704  	0.083256 
3076.461520  	0.084482 
3078.390336  	0.085687 
3080.319152  	0.087005 
3082.247968  	0.088238 
3084.176784  	0.089304 
3086.105600  	0.090310 
3088.034416  	0.091390 
3089.963232  	0.092468 
3091.892048  	0.093539 
3093.820864  	0.094859 
3095.749680  	0.096438 
3097.678496  	0.097675 
3099.607312  	0.099098 
3101.536128  	0.100471 
3103.464944  	0.101394 
3105.393760  	0.102432 
3107.322576  	0.103621 
3109.251392  	0.104812 
3111.180208  	0.105934 
3113.109024  	0.106824 
3115.037840  	0.107852 
3116.966656  	0.108932 
3118.895472  	0.109844 
3120.824288  	0.110701 
3122.753104  	0.111800 
3124.681920  	0.112790 
3126.610736  	0.113551 
3128.539552  	0.114307 
3130.468368  	0.115043 
3132.397184  	0.116142 
3134.326000  	0.117028 
3136.254816  	0.117662 
3138.183632  	0.118497 
3140.112448  	0.119326 
3142.041264  	0.120455 
3143.970080  	0.121623 
3145.898896  	0.122453 
3147.827712  	0.123175 
3149.756528  	0.124121 
3151.685344  	0.124993 
3153.614160  	0.125766 
3155.542976  	0.126756 
3157.471792  	0.127875 
3159.400608  	0.128854 
3161.329424  	0.129761 
3163.258240  	0.130589 
3165.187056  	0.131343 
3167.115872  	0.132017 
3169.044688  	0.132747 
3170.973504  	0.133447 
3172.902320  	0.134028 
3174.831136  	0.134581 
3176.759952  	0.135380 
3178.688768  	0.136096 
3180.617584  	0.136382 
3182.546400  	0.136746 
3184.475216  	0.137097 
3186.404032  	0.137331 
3188.332848  	0.137577 
3190.261664  	0.137858 
3192.190480  	0.138033 
3194.119296  	0.138006 
3196.048112  	0.137881 
3197.976928  	0.138085 
3199.905744  	0.138102 
3201.834560  	0.137875 
3203.763376  	0.137546 
3205.692192  	0.137149 
3207.621008  	0.137099 
3209.549824  	0.137151 
3211.478640  	0.137220 
3213.407456  	0.137047 
3215.336272  	0.136908 
3217.265088  	0.136706 
3219.193904  	0.136713 
3221.122720  	0.136656 
3223.051536  	0.136113 
3224.980352  	0.135791 
3226.909168  	0.135717 
3228.837984  	0.135392 
3230.766800  	0.135108 
3232.695616  	0.135143 
3234.624432  	0.135202 
3236.553248  	0.135221 
3238.482064  	0.135275 
3240.410880  	0.135242 
3242.339696  	0.135226 
3244.268512  	0.135310 
3246.197328  	0.135267 
3248.126144  	0.135310 
3250.054960  	0.135766 
3251.983776  	0.136097 
3253.912592  	0.136334 
3255.841408  	0.136552 
3257.770224  	0.136571 
3259.699040  	0.136834 
3261.627856  	0.137258 
3263.556672  	0.137212 
3265.485488  	0.137371 
3267.414304  	0.137516 
3269.343120  	0.137670 
3271.271936  	0.137935 
3273.200752  	0.138310 
3275.129568  	0.138439 
3277.058384  	0.138500 
3278.987200  	0.138631 
3280.916016  	0.138832 
3282.844832  	0.139018 
3284.773648  	0.139107 
3286.702464  	0.139347 
3288.631280  	0.139621 
3290.560096  	0.139841 
3292.488912  	0.140050 
3294.417728  	0.140372 
3296.346544  	0.140758 
3298.275360  	0.140972 
3300.204176  	0.141158 
3302.132992  	0.141274 
3304.061808  	0.141693 
3305.990624  	0.142218 
3307.919440  	0.142639 
3309.848256  	0.143017 
3311.777072  	0.143435 
3313.705888  	0.143575 
3315.634704  	0.143766 
3317.563520  	0.144073 
3319.492336  	0.144424 
3321.421152  	0.144739 
3323.349968  	0.144835 
3325.278784  	0.144983 
3327.207600  	0.145215 
3329.136416  	0.144934 
3331.065232  	0.144855 
3332.994048  	0.144959 
3334.922864  	0.145342 
3336.851680  	0.145386 
3338.780496  	0.145011 
3340.709312  	0.144582 
3342.638128  	0.144450 
3344.566944  	0.144133 
3346.495760  	0.143632 
3348.424576  	0.143119 
3350.353392  	0.142706 
3352.282208  	0.142263 
3354.211024  	0.141926 
3356.139840  	0.141650 
3358.068656  	0.141303 
3359.997472  	0.140745 
3361.926288  	0.140200 
3363.855104  	0.139650 
3365.783920  	0.139356 
3367.712736  	0.138747 
3369.641552  	0.138044 
3371.570368  	0.137351 
3373.499184  	0.136875 
3375.428000  	0.136560 
3377.356816  	0.136250 
3379.285632  	0.135702 
3381.214448  	0.135030 
3383.143264  	0.134625 
3385.072080  	0.134198 
3387.000896  	0.133262 
3388.929712  	0.132599 
3390.858528  	0.132460 
3392.787344  	0.132324 
3394.716160  	0.131332 
3396.644976  	0.130631 
3398.573792  	0.129982 
3400.502608  	0.129059 
3402.431424  	0.128112 
3404.360240  	0.127214 
3406.289056  	0.126258 
3408.217872  	0.125468 
3410.146688  	0.124888 
3412.075504  	0.124166 
3414.004320  	0.123648 
3415.933136  	0.123045 
3417.861952  	0.122333 
3419.790768  	0.122269 
3421.719584  	0.121589 
3423.648400  	0.119933 
3425.577216  	0.118567 
3427.506032  	0.117863 
3429.434848  	0.117103 
3431.363664  	0.116446 
3433.292480  	0.115425 
3435.221296  	0.114343 
3437.150112  	0.113340 
3439.078928  	0.112465 
3441.007744  	0.111849 
3442.936560  	0.111432 
3444.865376  	0.110705 
3446.794192  	0.110349 
3448.723008  	0.108783 
3450.651824  	0.106726 
3452.580640  	0.105612 
3454.509456  	0.104646 
3456.438272  	0.103482 
3458.367088  	0.102623 
3460.295904  	0.101961 
3462.224720  	0.101059 
3464.153536  	0.099454 
3466.082352  	0.098271 
3468.011168  	0.097295 
3469.939984  	0.096047 
3471.868800  	0.094837 
3473.797616  	0.093577 
3475.726432  	0.092296 
3477.655248  	0.090880 
3479.584064  	0.090126 
3481.512880  	0.089783 
3483.441696  	0.088225 
3485.370512  	0.086408 
3487.299328  	0.085430 
3489.228144  	0.083874 
3491.156960  	0.082130 
3493.085776  	0.081123 
3495.014592  	0.080476 
3496.943408  	0.079559 
3498.872224  	0.078154 
3500.801040  	0.078263 
3502.729856  	0.078728 
3504.658672  	0.077004 
3506.587488  	0.074388 
3508.516304  	0.073800 
3510.445120  	0.073075 
3512.373936  	0.070968 
3514.302752  	0.069386 
3516.231568  	0.068395 
3518.160384  	0.067698 
3520.089200  	0.066820 
3522.018016  	0.067052 
3523.946832  	0.067810 
3525.875648  	0.066683 
3527.804464  	0.065240 
3529.733280  	0.063180 
3531.662096  	0.060914 
3533.590912  	0.059253 
3535.519728  	0.059193 
3537.448544  	0.058192 
3539.377360  	0.056127 
3541.306176  	0.055256 
3543.234992  	0.056157 
3545.163808  	0.058109 
3547.092624  	0.056937 
3549.021440  	0.053109 
3550.950256  	0.051703 
3552.879072  	0.051746 
3554.807888  	0.049290 
3556.736704  	0.047117 
3558.665520  	0.047129 
3560.594336  	0.047364 
3562.523152  	0.046668 
3564.451968  	0.048087 
3566.380784  	0.052171 
3568.309600  	0.049748 
3570.238416  	0.043131 
3572.167232  	0.039901 
3574.096048  	0.038992 
3576.024864  	0.038085 
3577.953680  	0.036830 
3579.882496  	0.035928 
3581.811312  	0.034855 
3583.740128  	0.034386 
3585.668944  	0.036386 
3587.597760  	0.038921 
3589.526576  	0.034053 
3591.455392  	0.029930 
3593.384208  	0.030295 
3595.313024  	0.030495 
3597.241840  	0.028520 
3599.170656  	0.026680 
3601.099472  	0.025383 
3603.028288  	0.022852 
3604.957104  	0.021498 
3606.885920  	0.023228 
3608.814736  	0.024063 
3610.743552  	0.021667 
3612.672368  	0.021757 
3614.601184  	0.021260 
3616.530000  	0.019151 
3618.458816  	0.019397 
3620.387632  	0.017009 
3622.316448  	0.012494 
3624.245264  	0.010502 
3626.174080  	0.011308 
3628.102896  	0.014707 
3630.031712  	0.014369 
3631.960528  	0.008947 
3633.889344  	0.006275 
3635.818160  	0.003943 
3637.746976  	0.002497 
3639.675792  	0.001632 
3641.604608  	0.001156 
3643.533424  	0.000617 
3645.462240  	0.001376 
3647.391056  	0.006341 
3649.319872  	0.008559 
3651.248688  	0.003324 
3653.177504  	-0.003212 
3655.106320  	-0.004943 
3657.035136  	-0.005179 
3658.963952  	-0.007613 
3660.892768  	-0.009157 
3662.821584  	-0.010215 
3664.750400  	-0.010750 
3666.679216  	-0.010370 
3668.608032  	-0.007952 
3670.536848  	-0.005413 
3672.465664  	-0.008081 
3674.394480  	-0.007306 
3676.323296  	-0.005027 
3678.252112  	-0.008930 
3680.180928  	-0.011778 
3682.109744  	-0.014022 
3684.038560  	-0.014541 
3685.967376  	-0.014245 
3687.896192  	-0.011753 
3689.825008  	-0.008958 
3691.753824  	-0.011088 
3693.682640  	-0.014170 
3695.611456  	-0.015600 
3697.540272  	-0.015985 
3699.469088  	-0.016231 
3701.397904  	-0.014861 
3703.326720  	-0.014983 
3705.255536  	-0.015768 
3707.184352  	-0.015304 
3709.113168  	-0.013145 
3711.041984  	-0.009460 
3712.970800  	-0.010328 
3714.899616  	-0.013846 
3716.828432  	-0.015535 
3718.757248  	-0.014772 
3720.686064  	-0.013835 
3722.614880  	-0.012365 
3724.543696  	-0.011678 
3726.472512  	-0.011354 
3728.401328  	-0.013891 
3730.330144  	-0.015633 
3732.258960  	-0.012986 
3734.187776  	-0.007413 
3736.116592  	-0.004540 
3738.045408  	-0.009327 
3739.974224  	-0.011794 
3741.903040  	-0.012249 
3743.831856  	-0.011190 
3745.760672  	-0.009177 
3747.689488  	-0.010360 
3749.618304  	-0.008383 
3751.547120  	-0.006573 
3753.475936  	-0.010517 
3755.404752  	-0.013695 
3757.333568  	-0.013545 
3759.262384  	-0.012686 
3761.191200  	-0.014439 
3763.120016  	-0.016205 
3765.048832  	-0.015215 
3766.977648  	-0.014868 
3768.906464  	-0.014706 
3770.835280  	-0.014514 
3772.764096  	-0.016746 
3774.692912  	-0.017812 
3776.621728  	-0.017543 
3778.550544  	-0.015978 
3780.479360  	-0.015343 
3782.408176  	-0.016514 
3784.336992  	-0.016052 
3786.265808  	-0.016226 
3788.194624  	-0.017439 
3790.123440  	-0.017854 
3792.052256  	-0.018044 
3793.981072  	-0.017772 
3795.909888  	-0.015406 
3797.838704  	-0.013651 
3799.767520  	-0.013676 
3801.696336  	-0.011117 
3803.625152  	-0.013482 
3805.553968  	-0.015645 
3807.482784  	-0.014914 
3809.411600  	-0.016349 
3811.340416  	-0.017535 
3813.269232  	-0.017523 
3815.198048  	-0.015106 
3817.126864  	-0.012909 
3819.055680  	-0.013293 
3820.984496  	-0.010855 
3822.913312  	-0.012471 
3824.842128  	-0.015107 
3826.770944  	-0.015100 
3828.699760  	-0.015997 
3830.628576  	-0.016153 
3832.557392  	-0.014906 
3834.486208  	-0.014741 
3836.415024  	-0.013519 
3838.343840  	-0.011000 
3840.272656  	-0.010452 
3842.201472  	-0.012569 
3844.130288  	-0.014110 
3846.059104  	-0.016306 
3847.987920  	-0.016888 
3849.916736  	-0.015265 
3851.845552  	-0.011629 
3853.774368  	-0.006979 
3855.703184  	-0.010215 
3857.632000  	-0.013224 
3859.560816  	-0.015458 
3861.489632  	-0.014669 
3863.418448  	-0.012292 
3865.347264  	-0.011695 
3867.276080  	-0.014013 
3869.204896  	-0.012144 
3871.133712  	-0.010465 
3873.062528  	-0.012948 
3874.991344  	-0.014147 
3876.920160  	-0.016893 
3878.848976  	-0.016084 
3880.777792  	-0.012327 
3882.706608  	-0.012845 
3884.635424  	-0.013415 
3886.564240  	-0.013949 
3888.493056  	-0.016710 
3890.421872  	-0.015631 
3892.350688  	-0.013717 
3894.279504  	-0.015504 
3896.208320  	-0.016800 
3898.137136  	-0.014880 
3900.065952  	-0.011728 
3901.994768  	-0.010689 
3903.923584  	-0.010221 
3905.852400  	-0.012533 
3907.781216  	-0.016664 
3909.710032  	-0.018562 
3911.638848  	-0.018823 
3913.567664  	-0.018515 
3915.496480  	-0.016376 
3917.425296  	-0.014098 
3919.354112  	-0.014824 
3921.282928  	-0.015712 
3923.211744  	-0.015067 
3925.140560  	-0.014350 
3927.069376  	-0.016435 
3928.998192  	-0.016375 
3930.927008  	-0.014596 
3932.855824  	-0.014475 
3934.784640  	-0.016591 
3936.713456  	-0.017684 
3938.642272  	-0.017778 
3940.571088  	-0.017211 
3942.499904  	-0.014880 
3944.428720  	-0.015376 
3946.357536  	-0.016549 
3948.286352  	-0.015030 
3950.215168  	-0.015603 
3952.143984  	-0.017456 
3954.072800  	-0.018129 
3956.001616  	-0.017943 
3957.930432  	-0.017622 
3959.859248  	-0.017267 
3961.788064  	-0.016850 
3963.716880  	-0.017438 
3965.645696  	-0.018431 
3967.574512  	-0.018459 
3969.503328  	-0.018230 
3971.432144  	-0.017985 
3973.360960  	-0.017410 
3975.289776  	-0.016905 
3977.218592  	-0.017374 
3979.147408  	-0.018256 
3981.076224  	-0.018491 
3983.005040  	-0.018410 
3984.933856  	-0.018284 
3986.862672  	-0.018228 
3988.791488  	-0.018107 
3990.720304  	-0.017722 
3992.649120  	-0.018022 
3994.577936  	-0.018067 
3996.506752  	-0.018309 
3998.435568  	-0.018672 
4000.364384  	-0.018531 